Voltage, Run #1
Time ( s )	Voltage ( V )
0,000	0,026
0,100	0,026
0,200	0,026
0,300	0,026
0,400	0,026
0,500	0,026
0,600	0,026
0,700	0,026
0,800	0,026
0,900	0,026
1,000	0,026
1,100	0,026
1,200	0,026
1,300	0,026
1,400	0,031
1,500	0,026
1,600	0,026
1,700	0,026
1,800	0,026
1,900	0,026
2,000	0,026
2,100	0,026
2,200	0,026
2,300	0,026
2,400	0,031
2,500	0,026
2,600	0,026
2,700	0,031
2,800	0,031
2,900	0,026
3,000	0,026
3,100	0,031
3,200	0,026
3,300	0,026
3,400	0,026
3,500	0,026
3,600	0,026
3,700	0,026
3,800	0,026
3,900	0,031
4,000	0,026
4,100	0,026
4,200	0,026
4,300	0,026
4,400	0,026
4,500	0,026
4,600	0,026
4,700	0,026
4,800	0,026
4,900	0,026
5,000	0,026
5,100	0,026
5,200	0,026
5,300	0,026
5,400	0,026
5,500	0,026
5,600	0,026
5,700	0,026
5,800	0,026
5,900	0,026
6,000	0,026
6,100	0,026
6,200	0,026
6,300	0,026
6,400	0,026
6,500	0,026
6,600	0,026
6,700	0,026
6,800	0,026
6,900	0,026
7,000	0,026
7,100	0,026
7,200	0,026
7,300	0,026
7,400	0,026
7,500	0,026
7,600	0,026
7,700	0,026
7,800	0,026
7,900	0,026
8,000	0,026
8,100	0,026
8,200	0,026
8,300	0,026
8,400	0,026
8,500	0,031
8,600	0,026
8,700	0,026
8,800	0,026
8,900	0,026
9,000	0,026
9,100	0,026
9,200	0,026
9,300	0,031
9,400	0,026
9,500	0,026
9,600	0,026
9,700	0,026
9,800	0,026
9,900	0,026
10,000	0,026
10,100	0,026
10,200	0,026
10,300	0,026
10,400	0,026
10,500	0,026
10,600	0,026
10,700	0,026
10,800	0,026
10,900	0,026
11,000	0,026
11,100	0,026
11,200	0,026
11,300	0,031
11,400	0,026
11,500	0,026
11,600	0,026
11,700	0,026
11,800	0,026
11,900	0,026
12,000	0,026
12,100	0,026
12,200	0,026
12,300	0,026
12,400	0,026
12,500	0,026
12,600	0,026
12,700	0,026
12,800	0,026
12,900	0,026
13,000	0,026
13,100	0,026
13,200	0,026
13,300	0,026
13,400	0,026
13,500	0,031
13,600	0,026
13,700	0,026
13,800	0,026
13,900	0,026
14,000	0,026
14,100	0,026
14,200	0,031
14,300	0,026
14,400	0,026
14,500	0,026
14,600	0,026
14,700	0,026
14,800	0,026
14,900	0,026
15,000	0,026
15,100	0,026
15,200	0,026
15,300	0,026
15,400	0,026
15,500	0,026
15,600	0,031
15,700	0,026
15,800	0,026
15,900	0,026
16,000	0,026
16,100	0,026
16,200	0,026
16,300	0,026
16,400	0,026
16,500	0,026
16,600	0,026
16,700	0,026
16,800	0,026
16,900	0,026
17,000	0,026
17,100	0,026
17,200	0,026
17,300	0,026
17,400	0,026
17,500	0,026
17,600	0,026
17,700	0,031
17,800	0,026
17,900	0,026
18,000	0,021
18,100	0,026
18,200	0,026
18,300	0,026
18,400	0,026
18,500	3,275
18,600	3,285
18,700	3,301
18,800	3,311
18,900	3,316
19,000	3,321
19,100	3,326
19,200	3,326
19,300	3,337
19,400	3,337
19,500	3,342
19,600	3,342
19,700	3,347
19,800	3,347
19,900	3,347
20,000	3,352
20,100	3,352
20,200	3,357
20,300	3,352
20,400	3,357
20,500	3,357
20,600	3,357
20,700	3,363
20,800	3,363
20,900	3,363
21,000	3,363
21,100	3,368
21,200	3,363
21,300	3,368
21,400	3,368
21,500	3,368
21,600	3,368
21,700	3,373
21,800	3,368
21,900	3,373
22,000	3,368
22,100	3,373
22,200	3,373
22,300	3,373
22,400	3,373
22,500	3,373
22,600	3,373
22,700	3,373
22,800	3,373
22,900	3,373
23,000	3,373
23,100	3,373
23,200	3,373
23,300	3,378
23,400	3,378
23,500	3,378
23,600	3,378
23,700	3,378
23,800	3,378
23,900	3,378
24,000	3,378
24,100	3,378
24,200	3,378
24,300	3,378
24,400	3,378
24,500	3,383
24,600	3,383
24,700	3,383
24,800	3,383
24,900	3,383
25,000	3,383
25,100	3,383
25,200	3,388
25,300	3,388
25,400	3,388
25,500	3,388
25,600	3,388
25,700	3,388
25,800	3,388
25,900	3,388
26,000	3,388
26,100	3,388
26,200	3,388
26,300	3,394
26,400	3,388
26,500	3,388
26,600	3,388
26,700	3,394
26,800	3,394
26,900	3,394
27,000	3,388
27,100	3,388
27,200	3,394
27,300	3,394
27,400	3,394
27,500	3,394
27,600	3,394
27,700	3,399
27,800	3,394
27,900	3,394
28,000	3,399
28,100	3,394
28,200	3,399
28,300	3,394
28,400	3,399
28,500	3,399
28,600	3,399
28,700	3,399
28,800	3,399
28,900	3,399
29,000	3,399
29,100	3,399
29,200	3,404
29,300	3,404
29,400	3,404
29,500	3,399
29,600	3,399
29,700	3,404
29,800	3,404
29,900	3,399
30,000	3,404
30,100	3,404
30,200	3,404
30,300	3,404
30,400	3,404
30,500	3,404
30,600	3,409
30,700	3,409
30,800	3,409
30,900	3,409
31,000	3,404
31,100	3,409
31,200	3,409
31,300	3,409
31,400	3,409
31,500	3,409
31,600	3,409
31,700	3,409
31,800	3,409
31,900	3,414
32,000	3,409
32,100	3,414
32,200	3,409
32,300	3,414
32,400	3,414
32,500	3,409
32,600	3,414
32,700	3,414
32,800	3,414
32,900	3,414
33,000	3,414
33,100	3,409
33,200	3,414
33,300	3,419
33,400	3,414
33,500	3,414
33,600	3,414
33,700	3,414
33,800	3,419
33,900	3,414
34,000	3,419
34,100	3,414
34,200	3,419
34,300	3,419
34,400	3,419
34,500	3,419
34,600	3,419
34,700	3,419
34,800	3,419
34,900	3,419
35,000	3,419
35,100	3,419
35,200	3,419
35,300	3,424
35,400	3,424
35,500	3,419
35,600	3,424
35,700	3,424
35,800	3,424
35,900	3,424
36,000	3,424
36,100	3,424
36,200	3,419
36,300	3,424
36,400	3,424
36,500	3,424
36,600	3,424
36,700	3,424
36,800	3,424
36,900	3,424
37,000	3,430
37,100	3,424
37,200	3,430
37,300	3,430
37,400	3,424
37,500	3,430
37,600	3,430
37,700	3,430
37,800	3,430
37,900	3,430
38,000	3,430
38,100	3,430
38,200	3,430
38,300	3,430
38,400	3,430
38,500	3,430
38,600	3,430
38,700	3,435
38,800	3,435
38,900	3,430
39,000	3,435
39,100	3,435
39,200	3,435
39,300	3,430
39,400	3,435
39,500	3,435
39,600	3,435
39,700	3,435
39,800	3,435
39,900	3,435
40,000	3,435
40,100	3,435
40,200	3,435
40,300	3,435
40,400	3,435
40,500	3,435
40,600	3,435
40,700	3,440
40,800	3,435
40,900	3,440
41,000	3,435
41,100	3,435
41,200	3,440
41,300	3,435
41,400	3,440
41,500	3,435
41,600	3,440
41,700	3,440
41,800	3,440
41,900	3,440
42,000	3,440
42,100	3,440
42,200	3,440
42,300	3,440
42,400	3,440
42,500	3,440
42,600	3,440
42,700	3,445
42,800	3,440
42,900	3,440
43,000	3,440
43,100	3,445
43,200	3,445
43,300	3,440
43,400	3,445
43,500	3,445
43,600	3,445
43,700	3,445
43,800	3,445
43,900	3,445
44,000	3,445
44,100	3,445
44,200	3,445
44,300	3,445
44,400	3,445
44,500	3,445
44,600	3,445
44,700	3,445
44,800	3,445
44,900	3,450
45,000	3,450
45,100	3,445
45,200	3,450
45,300	3,450
45,400	3,450
45,500	3,450
45,600	3,445
45,700	3,450
45,800	3,450
45,900	3,450
46,000	3,450
46,100	3,450
46,200	3,450
46,300	3,450
46,400	3,450
46,500	3,455
46,600	3,450
46,700	3,450
46,800	3,450
46,900	3,450
47,000	3,450
47,100	3,450
47,200	3,450
47,300	3,450
47,400	3,455
47,500	3,455
47,600	3,450
47,700	3,455
47,800	3,450
47,900	3,450
48,000	3,455
48,100	3,455
48,200	3,450
48,300	3,455
48,400	3,455
48,500	3,455
48,600	3,455
48,700	3,455
48,800	3,455
48,900	3,455
49,000	3,455
49,100	3,455
49,200	3,455
49,300	3,455
49,400	3,455
49,500	3,455
49,600	3,455
49,700	3,461
49,800	3,455
49,900	3,461
50,000	3,455
50,100	3,461
50,200	3,461
50,300	3,461
50,400	3,455
50,500	3,455
50,600	3,461
50,700	3,461
50,800	3,461
50,900	3,461
51,000	3,461
51,100	3,461
51,200	3,461
51,300	3,461
51,400	3,455
51,500	3,461
51,600	3,461
51,700	3,461
51,800	3,461
51,900	3,461
52,000	3,461
52,100	3,466
52,200	3,461
52,300	3,466
52,400	3,466
52,500	3,466
52,600	3,466
52,700	3,461
52,800	3,466
52,900	3,461
53,000	3,461
53,100	3,461
53,200	3,461
53,300	3,461
53,400	3,461
53,500	3,461
53,600	3,466
53,700	3,466
53,800	3,466
53,900	3,466
54,000	3,466
54,100	3,466
54,200	3,466
54,300	3,466
54,400	3,466
54,500	3,466
54,600	3,471
54,700	3,466
54,800	3,466
54,900	3,471
55,000	3,471
55,100	3,466
55,200	3,466
55,300	3,466
55,400	3,466
55,500	3,471
55,600	3,471
55,700	3,471
55,800	3,466
55,900	3,466
56,000	3,466
56,100	3,466
56,200	3,466
56,300	3,466
56,400	3,471
56,500	3,466
56,600	3,471
56,700	3,471
56,800	3,466
56,900	3,466
57,000	3,466
57,100	3,471
57,200	3,471
57,300	3,471
57,400	3,471
57,500	3,471
57,600	3,471
57,700	3,471
57,800	3,471
57,900	3,471
58,000	3,471
58,100	3,471
58,200	3,471
58,300	3,471
58,400	3,471
58,500	3,471
58,600	3,471
58,700	3,471
58,800	3,476
58,900	3,471
59,000	3,476
59,100	3,471
59,200	3,471
59,300	3,471
59,400	3,471
59,500	3,471
59,600	3,471
59,700	3,471
59,800	3,471
59,900	3,471
60,000	3,476
60,100	3,476
60,200	3,476
60,300	3,476
60,400	3,476
60,500	3,476
60,600	3,476
60,700	3,476
60,800	3,476
60,900	3,476
61,000	3,476
61,100	3,476
61,200	3,476
61,300	3,471
61,400	3,476
61,500	3,476
61,600	3,476
61,700	3,476
61,800	3,476
61,900	3,476
62,000	3,476
62,100	3,481
62,200	3,481
62,300	3,476
62,400	3,476
62,500	3,476
62,600	3,476
62,700	3,481
62,800	3,476
62,900	3,476
63,000	3,476
63,100	3,476
63,200	3,476
63,300	3,481
63,400	3,476
63,500	3,481
63,600	3,481
63,700	3,481
63,800	3,481
63,900	3,481
64,000	3,476
64,100	3,481
64,200	3,481
64,300	3,481
64,400	3,481
64,500	3,481
64,600	3,481
64,700	3,481
64,800	3,481
64,900	3,481
65,000	3,481
65,100	3,481
65,200	3,481
65,300	3,481
65,400	3,481
65,500	3,481
65,600	3,481
65,700	3,481
65,800	3,481
65,900	3,481
66,000	3,481
66,100	3,486
66,200	3,486
66,300	3,481
66,400	3,486
66,500	3,486
66,600	3,486
66,700	3,481
66,800	3,486
66,900	3,481
67,000	3,481
67,100	3,486
67,200	3,486
67,300	3,486
67,400	3,481
67,500	3,486
67,600	3,486
67,700	3,486
67,800	3,486
67,900	3,486
68,000	3,486
68,100	3,486
68,200	3,481
68,300	3,486
68,400	3,486
68,500	3,486
68,600	3,486
68,700	3,486
68,800	3,486
68,900	3,486
69,000	3,486
69,100	3,486
69,200	3,486
69,300	3,486
69,400	3,486
69,500	3,486
69,600	3,486
69,700	3,491
69,800	3,486
69,900	3,486
70,000	3,486
70,100	3,486
70,200	3,486
70,300	3,486
70,400	3,486
70,500	3,491
70,600	3,486
70,700	3,486
70,800	3,486
70,900	3,491
71,000	3,491
71,100	3,486
71,200	3,491
71,300	3,491
71,400	3,491
71,500	3,491
71,600	3,486
71,700	3,486
71,800	3,491
71,900	3,486
72,000	3,491
72,100	3,486
72,200	3,491
72,300	3,491
72,400	3,491
72,500	3,491
72,600	3,486
72,700	3,491
72,800	3,491
72,900	3,491
73,000	3,486
73,100	3,491
73,200	3,491
73,300	3,486
73,400	3,491
73,500	3,491
73,600	3,491
73,700	3,491
73,800	3,491
73,900	3,491
74,000	3,491
74,100	3,491
74,200	3,491
74,300	3,491
74,400	3,491
74,500	3,491
74,600	3,491
74,700	3,491
74,800	3,491
74,900	3,491
75,000	3,491
75,100	3,497
75,200	3,497
75,300	3,491
75,400	3,491
75,500	3,491
75,600	3,491
75,700	3,497
75,800	3,497
75,900	3,491
76,000	3,497
76,100	3,491
76,200	3,497
76,300	3,497
76,400	3,497
76,500	3,497
76,600	3,497
76,700	3,497
76,800	3,491
76,900	3,497
77,000	3,497
77,100	3,497
77,200	3,497
77,300	3,497
77,400	3,497
77,500	3,491
77,600	3,497
77,700	3,497
77,800	3,497
77,900	3,497
78,000	3,497
78,100	3,497
78,200	3,497
78,300	3,497
78,400	3,497
78,500	3,497
78,600	3,497
78,700	3,497
78,800	3,497
78,900	3,497
79,000	3,502
79,100	3,497
79,200	3,497
79,300	3,497
79,400	3,497
79,500	3,497
79,600	3,497
79,700	3,497
79,800	3,497
79,900	3,497
80,000	3,497
80,100	3,497
80,200	3,497
80,300	3,502
80,400	3,502
80,500	3,502
80,600	3,502
80,700	3,497
80,800	3,497
80,900	3,497
81,000	3,502
81,100	3,497
81,200	3,497
81,300	3,497
81,400	3,502
81,500	3,502
81,600	3,502
81,700	3,502
81,800	3,502
81,900	3,497
82,000	3,502
82,100	3,497
82,200	3,502
82,300	3,497
82,400	3,497
82,500	3,497
82,600	3,502
82,700	3,502
82,800	3,502
82,900	3,497
83,000	3,502
83,100	3,502
83,200	3,502
83,300	3,502
83,400	3,502
83,500	3,502
83,600	3,502
83,700	3,502
83,800	3,502
83,900	3,497
84,000	3,502
84,100	3,502
84,200	3,502
84,300	3,502
84,400	3,502
84,500	3,502
84,600	3,502
84,700	3,502
84,800	3,502
84,900	3,497
85,000	3,502
85,100	3,502
85,200	3,502
85,300	3,502
85,400	3,502
85,500	3,507
85,600	3,502
85,700	3,502
85,800	3,502
85,900	3,502
86,000	3,507
86,100	3,502
86,200	3,502
86,300	3,502
86,400	3,502
86,500	3,507
86,600	3,502
86,700	3,502
86,800	3,507
86,900	3,502
87,000	3,507
87,100	3,502
87,200	3,502
87,300	3,502
87,400	3,502
87,500	3,507
87,600	3,502
87,700	3,507
87,800	3,502
87,900	3,507
88,000	3,502
88,100	3,507
88,200	3,507
88,300	3,507
88,400	3,502
88,500	3,507
88,600	3,502
88,700	3,507
88,800	3,507
88,900	3,507
89,000	3,507
89,100	3,507
89,200	3,507
89,300	3,507
89,400	3,507
89,500	3,507
89,600	3,502
89,700	3,507
89,800	3,507
89,900	3,502
90,000	3,507
90,100	3,507
90,200	3,507
90,300	3,507
90,400	3,507
90,500	3,512
90,600	3,507
90,700	3,507
90,800	3,507
90,900	3,502
91,000	3,507
91,100	3,507
91,200	3,507
91,300	3,507
91,400	3,502
91,500	3,507
91,600	3,507
91,700	3,507
91,800	3,507
91,900	3,507
92,000	3,507
92,100	3,507
92,200	3,507
92,300	3,507
92,400	3,507
92,500	3,507
92,600	3,507
92,700	3,507
92,800	3,507
92,900	3,507
93,000	3,512
93,100	3,507
93,200	3,507
93,300	3,507
93,400	3,507
93,500	3,507
93,600	3,507
93,700	3,507
93,800	3,507
93,900	3,512
94,000	3,507
94,100	3,512
94,200	3,507
94,300	3,512
94,400	3,507
94,500	3,507
94,600	3,507
94,700	3,512
94,800	3,512
94,900	3,507
95,000	3,507
95,100	3,507
95,200	3,507
95,300	3,507
95,400	3,512
95,500	3,507
95,600	3,507
95,700	3,507
95,800	3,512
95,900	3,507
96,000	3,507
96,100	3,507
96,200	3,512
96,300	3,512
96,400	3,512
96,500	3,512
96,600	3,512
96,700	3,512
96,800	3,512
96,900	3,512
97,000	3,512
97,100	3,507
97,200	3,507
97,300	3,512
97,400	3,512
97,500	3,512
97,600	3,512
97,700	3,512
97,800	3,512
97,900	3,507
98,000	3,512
98,100	3,512
98,200	3,507
98,300	3,507
98,400	3,512
98,500	3,512
98,600	3,512
98,700	3,507
98,800	3,512
98,900	3,507
99,000	3,512
99,100	3,512
99,200	3,512
99,300	3,512
99,400	3,512
99,500	3,512
99,600	3,512
99,700	3,512
99,800	3,512
99,900	3,512
100,000	3,512
100,100	3,512
100,200	3,512
100,300	3,512
100,400	3,512
100,500	3,512
100,600	3,512
100,700	3,512
100,800	3,512
100,900	3,512
101,000	3,512
101,100	3,512
101,200	3,512
101,300	3,512
101,400	3,512
101,500	3,512
101,600	3,512
101,700	3,512
101,800	3,512
101,900	3,512
102,000	3,512
102,100	3,517
102,200	3,512
102,300	3,512
102,400	3,517
102,500	3,512
102,600	3,512
102,700	3,512
102,800	3,517
102,900	3,512
103,000	3,512
103,100	3,512
103,200	3,512
103,300	3,512
103,400	3,512
103,500	3,512
103,600	3,517
103,700	3,517
103,800	3,517
103,900	3,517
104,000	3,517
104,100	3,512
104,200	3,517
104,300	3,512
104,400	3,517
104,500	3,517
104,600	3,517
104,700	3,512
104,800	3,512
104,900	3,512
105,000	3,517
105,100	3,517
105,200	3,517
105,300	3,517
105,400	3,517
105,500	3,517
105,600	3,517
105,700	3,512
105,800	3,517
105,900	3,517
106,000	3,517
106,100	3,517
106,200	3,517
106,300	3,517
106,400	3,512
106,500	3,517
106,600	3,517
106,700	3,517
106,800	3,517
106,900	3,512
107,000	3,517
107,100	3,517
107,200	3,517
107,300	3,512
107,400	3,517
107,500	3,517
107,600	3,512
107,700	3,517
107,800	3,517
107,900	3,517
108,000	3,517
108,100	3,517
108,200	3,517
108,300	3,517
108,400	3,517
108,500	3,517
108,600	3,517
108,700	3,517
108,800	3,512
108,900	3,522
109,000	3,517
109,100	3,517
109,200	3,517
109,300	3,517
109,400	3,517
109,500	3,517
109,600	3,517
109,700	3,517
109,800	3,517
109,900	3,517
110,000	3,517
110,100	3,517
110,200	3,517
110,300	3,517
110,400	3,517
110,500	3,517
110,600	3,517
110,700	3,517
110,800	3,517
110,900	3,517
111,000	3,517
111,100	3,517
111,200	3,517
111,300	3,517
111,400	3,517
111,500	3,517
111,600	3,522
111,700	3,517
111,800	3,517
111,900	3,517
112,000	3,517
112,100	3,517
112,200	3,517
112,300	3,522
112,400	3,517
112,500	3,517
112,600	3,517
112,700	3,517
112,800	3,517
112,900	3,517
113,000	3,517
113,100	3,517
113,200	3,517
113,300	3,517
113,400	3,517
113,500	3,517
113,600	3,522
113,700	3,522
113,800	3,517
113,900	3,517
114,000	3,517
114,100	3,517
114,200	3,517
114,300	3,517
114,400	3,522
114,500	3,517
114,600	3,517
114,700	3,522
114,800	3,522
114,900	3,522
115,000	3,522
115,100	3,522
115,200	3,517
115,300	3,517
115,400	3,522
115,500	3,522
115,600	3,517
115,700	3,517
115,800	3,517
115,900	3,522
116,000	3,522
116,100	3,522
116,200	3,517
116,300	3,517
116,400	3,522
116,500	3,517
116,600	3,522
116,700	3,517
116,800	3,517
116,900	3,522
117,000	3,517
117,100	3,517
117,200	3,522
117,300	3,522
117,400	3,522
117,500	3,522
117,600	3,517
117,700	3,522
117,800	3,522
117,900	3,522
118,000	3,517
118,100	3,522
118,200	3,522
118,300	3,522
118,400	3,522
118,500	3,522
118,600	3,522
118,700	3,522
118,800	3,522
118,900	3,522
119,000	3,517
119,100	3,517
119,200	3,522
119,300	3,517
119,400	3,522
119,500	3,522
119,600	3,522
119,700	3,522
119,800	3,522
119,900	3,522
120,000	3,522
120,100	3,522
120,200	3,522
120,300	3,522
120,400	3,517
120,500	3,522
120,600	3,517
120,700	3,522
120,800	3,522
120,900	3,517
121,000	3,522
121,100	1,238
121,200	1,212
121,300	1,191
121,400	1,171
121,500	0,810
121,600	0,794
121,700	0,779
121,800	0,768
121,900	0,758
122,000	0,743
122,100	0,737
122,200	0,727
122,300	0,722
122,400	0,717
122,500	0,707
122,600	0,701
122,700	0,691
122,800	0,691
122,900	0,691
123,000	0,681
123,100	0,676
123,200	0,676
123,300	0,670
123,400	0,665
123,500	0,665
123,600	0,660
123,700	0,655
123,800	0,650
123,900	0,650
124,000	0,645
124,100	0,645
124,200	0,645
124,300	0,640
124,400	0,640
124,500	0,634
124,600	0,640
124,700	0,634
124,800	0,629
124,900	0,629
125,000	0,629
125,100	0,624
125,200	0,619
125,300	0,619
125,400	0,619
125,500	0,619
125,600	0,619
125,700	0,614
125,800	0,609
125,900	0,609
126,000	0,609
126,100	0,609
126,200	0,609
126,300	0,603
126,400	0,603
126,500	0,603
126,600	0,598
126,700	0,598
126,800	0,598
126,900	0,598
127,000	0,593
127,100	0,593
127,200	0,588
127,300	0,593
127,400	0,588
127,500	0,588
127,600	0,588
127,700	0,588
127,800	0,583
127,900	0,583
128,000	0,578
128,100	0,578
128,200	0,578
128,300	0,578
128,400	0,572
128,500	0,572
128,600	0,572
128,700	0,572
128,800	0,572
128,900	0,567
129,000	0,567
129,100	0,562
129,200	0,567
129,300	0,562
129,400	0,562
129,500	0,562
129,600	0,562
129,700	0,557
129,800	0,557
129,900	0,552
130,000	0,552
130,100	0,552
130,200	0,552
130,300	0,552
130,400	0,547
130,500	0,547
130,600	0,547
130,700	0,547
130,800	0,547
130,900	0,547
131,000	0,542
131,100	0,542
131,200	0,542
131,300	0,536
131,400	0,536
131,500	0,536
131,600	0,536
131,700	0,531
131,800	0,536
131,900	0,531
132,000	0,531
132,100	0,526
132,200	0,526
132,300	0,526
132,400	0,526
132,500	0,521
132,600	0,521
132,700	0,521
132,800	0,521
132,900	0,521
133,000	0,521
133,100	0,516
133,200	0,521
133,300	0,516
133,400	0,516
133,500	0,516
133,600	0,511
133,700	0,511
133,800	0,511
133,900	0,511
134,000	0,505
134,100	0,505
134,200	0,505
134,300	0,500
134,400	0,505
134,500	0,500
134,600	0,500
134,700	0,500
134,800	0,500
134,900	0,495
135,000	0,495
135,100	0,490
135,200	0,495
135,300	0,490
135,400	0,490
135,500	0,490
135,600	0,490
135,700	0,485
135,800	0,490
135,900	0,485
136,000	0,485
136,100	0,485
136,200	0,485
136,300	0,480
136,400	0,480
136,500	0,480
136,600	0,480
136,700	0,474
136,800	0,474
136,900	0,480
137,000	0,474
137,100	0,469
137,200	0,474
137,300	0,469
137,400	0,469
137,500	0,469
137,600	0,469
137,700	0,469
137,800	0,469
137,900	0,469
138,000	0,464
138,100	0,464
138,200	0,464
138,300	0,464
138,400	0,459
138,500	0,459
138,600	0,459
138,700	0,459
138,800	0,459
138,900	0,454
139,000	0,459
139,100	0,449
139,200	0,449
139,300	0,449
139,400	0,449
139,500	0,449
139,600	0,449
139,700	0,444
139,800	0,449
139,900	0,444
140,000	0,444
140,100	0,444
140,200	0,444
140,300	0,438
140,400	0,444
140,500	0,438
140,600	0,438
140,700	0,438
140,800	0,438
140,900	0,438
141,000	0,438
141,100	0,433
141,200	0,433
141,300	0,433
141,400	0,433
141,500	0,428
141,600	0,428
141,700	0,428
141,800	0,428
141,900	0,428
142,000	0,423
142,100	0,423
142,200	0,423
142,300	0,423
142,400	0,423
142,500	0,423
142,600	0,418
142,700	0,418
142,800	0,418
142,900	0,418
143,000	0,418
143,100	0,418
143,200	0,418
143,300	0,418
143,400	0,413
143,500	0,413
143,600	0,413
143,700	0,413
143,800	0,413
143,900	0,407
144,000	0,407
144,100	0,407
144,200	0,407
144,300	0,402
144,400	0,407
144,500	0,407
144,600	0,407
144,700	0,407
144,800	0,402
144,900	0,397
145,000	0,402
145,100	0,397
145,200	0,397
145,300	0,397
145,400	0,397
145,500	0,397
145,600	0,392
145,700	0,397
145,800	0,392
145,900	0,392
146,000	0,392
146,100	0,392
146,200	0,392
146,300	0,387
146,400	0,387
146,500	0,387
146,600	0,387
146,700	0,387
146,800	0,387
146,900	0,382
147,000	0,382
147,100	0,382
147,200	0,382
147,300	0,382
147,400	0,382
147,500	0,382
147,600	0,376
147,700	0,376
147,800	0,376
147,900	0,376
148,000	0,376
148,100	0,376
148,200	0,371
148,300	0,371
148,400	0,376
148,500	0,371
148,600	0,371
148,700	0,371
148,800	0,371
148,900	0,366
149,000	0,366
149,100	0,366
149,200	0,366
149,300	0,361
149,400	0,366
149,500	0,361
149,600	0,361
149,700	0,366
149,800	0,361
149,900	0,361
150,000	0,356
150,100	0,356
150,200	0,356
150,300	0,356
150,400	0,356
150,500	0,356
150,600	0,356
150,700	0,356
150,800	0,356
150,900	0,356
151,000	0,351
151,100	0,351
151,200	0,351
151,300	0,351
151,400	0,351
151,500	0,346
151,600	0,346
151,700	0,346
151,800	0,346
151,900	0,346
152,000	0,346
152,100	0,346
152,200	0,346
152,300	0,340
152,400	0,340
152,500	0,340
152,600	0,340
152,700	0,340
152,800	0,340
152,900	0,340
153,000	0,340
153,100	0,340
153,200	0,335
153,300	0,335
153,400	0,335
153,500	0,335
153,600	0,335
153,700	0,335
153,800	0,330
153,900	0,330
154,000	0,330
154,100	0,330
154,200	0,330
154,300	0,330
154,400	0,330
154,500	0,330
154,600	0,325
154,700	0,330
154,800	0,325
154,900	0,325
155,000	0,325
155,100	0,325
155,200	0,320
155,300	0,325
155,400	0,325
155,500	0,320
155,600	0,320
155,700	0,320
155,800	0,320
155,900	0,320
156,000	0,320
156,100	0,315
156,200	0,315
156,300	0,320
156,400	0,315
156,500	0,315
156,600	0,315
156,700	0,315
156,800	0,315
156,900	0,315
157,000	0,309
157,100	0,309
157,200	0,309
157,300	0,309
157,400	0,309
157,500	0,309
157,600	0,309
157,700	0,309
157,800	0,309
157,900	0,309
158,000	0,309
158,100	0,304
158,200	0,304
158,300	0,304
158,400	0,304
158,500	0,299
158,600	0,299
158,700	0,299
158,800	0,299
158,900	0,299
159,000	0,299
159,100	0,299
159,200	0,299
159,300	0,299
159,400	0,299
159,500	0,299
159,600	0,299
159,700	0,299
159,800	0,299
159,900	0,294
160,000	0,294
160,100	0,294
160,200	0,294
160,300	0,294
160,400	0,294
160,500	0,294
160,600	0,294
160,700	0,289
160,800	0,289
160,900	0,289
161,000	0,289
161,100	0,284
161,200	0,289
161,300	0,289
161,400	0,289
161,500	0,284
161,600	0,284
161,700	0,284
161,800	0,284
161,900	0,284
162,000	0,284
162,100	0,284
162,200	0,284
162,300	0,284
162,400	0,278
162,500	0,278
162,600	0,278
162,700	0,278
162,800	0,278
162,900	0,278
163,000	0,278
163,100	0,278
163,200	0,273
163,300	0,273
163,400	0,273
163,500	0,273
163,600	0,273
163,700	0,273
163,800	0,273
163,900	0,273
164,000	0,273
164,100	0,268
164,200	0,273
164,300	0,268
164,400	0,268
164,500	0,268
164,600	0,268
164,700	0,268
164,800	0,268
164,900	0,268
165,000	0,263
165,100	0,268
165,200	0,268
165,300	0,263
165,400	0,263
165,500	0,263
165,600	0,263
165,700	0,263
165,800	0,263
165,900	0,263
166,000	0,258
166,100	0,258
166,200	0,263
166,300	0,258
166,400	0,263
166,500	0,258
166,600	0,258
166,700	0,258
166,800	0,258
166,900	0,258
167,000	0,258
167,100	0,258
167,200	0,253
167,300	0,258
167,400	0,253
167,500	0,253
167,600	0,253
167,700	0,253
167,800	0,253
167,900	0,253
168,000	0,253
168,100	0,253
168,200	0,248
168,300	0,253
168,400	0,248
168,500	0,248
168,600	0,248
168,700	0,248
168,800	0,248
168,900	0,248
169,000	0,248
169,100	0,248
169,200	0,248
169,300	0,248
169,400	0,242
169,500	0,248
169,600	0,242
169,700	0,242
169,800	0,242
169,900	0,242
170,000	0,242
170,100	0,242
170,200	0,242
170,300	0,242
170,400	0,242
170,500	0,242
170,600	0,242
170,700	0,237
170,800	0,237
170,900	0,237
171,000	0,237
171,100	0,237
171,200	0,237
171,300	0,237
171,400	0,237
171,500	0,237
171,600	0,237
171,700	0,232
171,800	0,232
171,900	0,232
172,000	0,232
172,100	0,232
172,200	0,232
172,300	0,232
172,400	0,232
172,500	0,232
172,600	0,227
172,700	0,232
172,800	0,232
172,900	0,232
173,000	0,227
173,100	0,227
173,200	0,222
173,300	0,227
173,400	0,227
173,500	0,227
173,600	0,227
173,700	0,227
173,800	0,227
173,900	0,227
174,000	0,222
174,100	0,222
174,200	0,227
174,300	0,222
174,400	0,222
174,500	0,222
174,600	0,222
174,700	0,222
174,800	0,222
174,900	0,222
175,000	0,222
175,100	0,222
175,200	0,222
175,300	0,222
175,400	0,222
175,500	0,217
175,600	0,222
175,700	0,217
175,800	0,217
175,900	0,217
176,000	0,217
176,100	0,217
176,200	0,217
176,300	0,217
176,400	0,211
176,500	0,217
176,600	0,217
176,700	0,211
176,800	0,217
176,900	0,211
177,000	0,217
177,100	0,211
177,200	0,211
177,300	0,211
177,400	0,211
177,500	0,211
177,600	0,211
177,700	0,211
177,800	0,211
177,900	0,211
178,000	0,206
178,100	0,206
178,200	0,206
178,300	0,211
178,400	0,206
178,500	0,206
178,600	0,206
178,700	0,206
178,800	0,206
178,900	0,206
179,000	0,206
179,100	0,206
179,200	0,201
179,300	0,201
179,400	0,206
179,500	0,206
179,600	0,201
179,700	0,206
179,800	0,201
179,900	0,201
180,000	0,201
180,100	0,201
180,200	0,201
180,300	0,201
180,400	0,201
180,500	0,201
180,600	0,201
180,700	0,201
180,800	0,201
180,900	0,201
181,000	0,201
181,100	0,201
181,200	0,196
181,300	0,196
181,400	0,196
181,500	0,196
181,600	0,196
181,700	0,196
181,800	0,191
181,900	0,196
182,000	0,196
182,100	0,191
182,200	0,196
182,300	0,196
182,400	0,196
182,500	0,191
182,600	0,191
182,700	0,191
182,800	0,191
182,900	0,196
183,000	0,191
183,100	0,191
183,200	0,191
183,300	0,191
183,400	0,191
183,500	0,191
183,600	0,186
183,700	0,186
183,800	0,186
183,900	0,186
184,000	0,186
184,100	0,186
184,200	0,186
184,300	0,191
184,400	0,186
184,500	0,186
184,600	0,186
184,700	0,186
184,800	0,186
184,900	0,186
185,000	0,186
185,100	0,181
185,200	0,186
185,300	0,186
185,400	0,186
185,500	0,181
185,600	0,186
185,700	0,186
185,800	0,181
185,900	0,181
186,000	0,181
186,100	0,181
186,200	0,181
186,300	0,181
186,400	0,181
186,500	0,181
186,600	0,181
186,700	0,181
186,800	0,181
186,900	0,175
187,000	0,181
187,100	0,181
187,200	0,175
187,300	0,175
187,400	0,175
187,500	0,175
187,600	0,175
187,700	0,175
187,800	0,175
187,900	0,175
188,000	0,175
188,100	0,170
188,200	0,175
188,300	0,175
188,400	0,170
188,500	0,175
188,600	0,170
188,700	0,175
188,800	0,175
188,900	0,170
189,000	0,170
189,100	0,170
189,200	0,170
189,300	0,170
189,400	0,170
189,500	0,170
189,600	0,175
189,700	0,170
189,800	0,170
189,900	0,170
190,000	0,170
190,100	0,165
190,200	0,170
190,300	0,170
190,400	0,170
190,500	0,170
190,600	0,165
190,700	0,165
190,800	0,165
190,900	0,165
191,000	0,170
191,100	0,170
191,200	0,165
191,300	0,165
191,400	0,165
191,500	0,165
191,600	0,165
191,700	0,165
191,800	0,165
191,900	0,165
192,000	0,165
192,100	0,160
192,200	0,165
192,300	0,165
192,400	0,165
192,500	0,165
192,600	0,165
192,700	0,165
192,800	0,160
192,900	0,165
193,000	0,165
193,100	0,160
193,200	0,160
193,300	0,160
193,400	0,160
193,500	0,160
193,600	0,160
193,700	0,160
193,800	0,160
193,900	0,160
194,000	0,160
194,100	0,160
194,200	0,160
194,300	0,155
194,400	0,155
194,500	0,155
194,600	0,155
194,700	0,155
194,800	0,155
194,900	0,155
195,000	0,160
195,100	0,155
195,200	0,155
195,300	0,155
195,400	0,160
195,500	0,155
195,600	0,155
195,700	0,155
195,800	0,150
195,900	0,155
196,000	0,155
196,100	0,150
196,200	0,155
196,300	0,155
196,400	0,155
196,500	0,150
196,600	0,155
196,700	0,150
196,800	0,155
196,900	0,155
197,000	0,150
197,100	0,150
197,200	0,150
197,300	0,150
197,400	0,150
197,500	0,150
197,600	0,150
197,700	0,150
197,800	0,150
197,900	0,150
198,000	0,150
198,100	0,150
198,200	0,150
198,300	0,144
198,400	0,150
198,500	0,150
198,600	0,150
198,700	0,144
198,800	0,144
198,900	0,150
199,000	0,144
199,100	0,144
199,200	0,150
199,300	0,144
199,400	0,144
199,500	0,144
199,600	0,144
199,700	0,144
199,800	0,144
199,900	0,144
200,000	0,144
200,100	0,144
200,200	0,144
200,300	0,144
200,400	0,144
200,500	0,144
200,600	0,144
200,700	0,139
200,800	0,144
200,900	0,139
201,000	0,144
201,100	0,139
201,200	0,139
201,300	0,139
201,400	0,139
201,500	0,144
201,600	0,139
201,700	0,139
201,800	0,139
201,900	0,139
202,000	0,139
202,100	0,139
202,200	0,139
202,300	0,139
202,400	0,139
202,500	0,139
202,600	0,139
202,700	0,139
202,800	0,139
202,900	0,139
203,000	0,139
203,100	0,134
203,200	0,134
203,300	0,139
203,400	0,139
203,500	0,134
203,600	0,139
203,700	0,139
203,800	0,134
203,900	0,134
204,000	0,134
204,100	0,134
204,200	0,134
204,300	0,134
204,400	0,134
204,500	0,134
204,600	0,134
204,700	0,129
204,800	0,134
204,900	0,134
205,000	0,134
205,100	0,139
205,200	0,134
205,300	0,134
205,400	0,134
205,500	0,134
205,600	0,134
205,700	0,129
205,800	0,129
205,900	0,129
206,000	0,129
206,100	0,134
206,200	0,129
206,300	0,129
206,400	0,129
206,500	0,129
206,600	0,129
206,700	0,129
206,800	0,134
206,900	0,129
207,000	0,129
207,100	0,129
207,200	0,129
207,300	0,129
207,400	0,134
207,500	0,129
207,600	0,129
207,700	0,129
207,800	0,129
207,900	0,129
208,000	0,129
208,100	0,129
208,200	0,129
208,300	0,124
208,400	0,129
208,500	0,129
208,600	0,124
208,700	0,129
208,800	0,129
208,900	0,124
209,000	0,124
209,100	0,129
209,200	0,124
209,300	0,124
209,400	0,124
209,500	0,129
209,600	0,124
209,700	0,124
209,800	0,129
209,900	0,129
210,000	0,129
210,100	0,124
210,200	0,124
210,300	0,124
210,400	0,124
210,500	0,119
210,600	0,119
210,700	0,124
210,800	0,124
210,900	0,124
211,000	0,124
211,100	0,119
211,200	0,124
211,300	0,124
211,400	0,119
211,500	0,124
211,600	0,119
211,700	0,119
211,800	0,119
211,900	0,119
212,000	0,124
212,100	0,119
212,200	0,119
212,300	0,119
212,400	0,119
212,500	0,119
212,600	0,119
212,700	0,119
212,800	0,119
212,900	0,119
213,000	0,119
213,100	0,119
213,200	0,119
213,300	0,119
213,400	0,119
213,500	0,119
213,600	0,119
213,700	0,119
213,800	0,119
213,900	0,119
214,000	0,119
214,100	0,119
214,200	0,119
214,300	0,119
214,400	0,113
214,500	0,113
214,600	0,113
214,700	0,113
214,800	0,119
214,900	0,113
215,000	0,119
215,100	0,119
215,200	0,113
215,300	0,113
215,400	0,113
215,500	0,113
215,600	0,113
215,700	0,113
215,800	0,113
215,900	0,113
216,000	0,113
216,100	0,113
216,200	0,113
216,300	0,113
216,400	0,113
216,500	0,113
216,600	0,113
216,700	0,113
216,800	0,113
216,900	0,113
217,000	0,113
217,100	0,113
217,200	0,113
217,300	0,113
217,400	0,108
217,500	0,108
217,600	0,108
217,700	0,108
217,800	0,113
217,900	0,113
218,000	0,108
218,100	0,108
218,200	0,108
218,300	0,108
218,400	0,108
218,500	0,113
218,600	0,108
218,700	0,113
218,800	0,108
218,900	0,108
219,000	0,113
219,100	0,108
219,200	0,108
219,300	0,108
219,400	0,108
219,500	0,108
219,600	0,108
219,700	0,108
219,800	0,108
219,900	0,108
220,000	0,108
220,100	0,108
220,200	0,108
220,300	0,108
220,400	0,108
220,500	0,108
220,600	0,108
220,700	0,108
220,800	0,103
220,900	0,108
221,000	0,108
221,100	0,103
221,200	0,108
221,300	0,103
221,400	0,108
221,500	0,103
221,600	0,103
221,700	0,103
221,800	0,108
221,900	0,108
222,000	0,103
222,100	0,108
222,200	0,103
222,300	0,103
222,400	0,103
222,500	0,103
222,600	0,103
222,700	0,103
222,800	0,103
222,900	0,103
223,000	0,103
223,100	0,103
223,200	0,103
223,300	0,103
223,400	0,103
223,500	0,103
223,600	0,103
223,700	0,103
223,800	0,103
223,900	0,103
224,000	0,103
224,100	0,103
224,200	0,103
224,300	0,103
224,400	0,103
224,500	0,098
224,600	0,103
224,700	0,103
224,800	0,103
224,900	0,103
225,000	0,103
225,100	0,103
225,200	0,098
225,300	0,098
225,400	0,098
225,500	0,098
225,600	0,098
225,700	0,098
225,800	0,103
225,900	0,098
226,000	0,098
226,100	0,103
226,200	0,103
226,300	0,098
226,400	0,098
226,500	0,093
226,600	0,098
226,700	0,098
226,800	0,098
226,900	0,098
227,000	0,098
227,100	0,098
227,200	0,098
227,300	0,098
227,400	0,098
227,500	0,098
227,600	0,098
227,700	0,098
227,800	0,098
227,900	0,098
228,000	0,098
228,100	0,093
228,200	0,098
228,300	0,098
228,400	0,098
228,500	0,098
228,600	0,098
228,700	0,093
228,800	0,093
228,900	0,093
229,000	0,093
229,100	0,098
229,200	0,093
229,300	0,098
229,400	0,093
229,500	0,093
229,600	0,093
229,700	0,098
229,800	0,093
229,900	0,093
230,000	0,093
230,100	0,093
230,200	0,093
230,300	0,098
230,400	0,093
230,500	0,093
230,600	0,093
230,700	0,093
230,800	0,093
230,900	0,093
231,000	0,093
231,100	0,093
231,200	0,093
231,300	0,093
231,400	0,093
231,500	0,093
231,600	0,093
231,700	0,093
231,800	0,093
231,900	0,093
232,000	0,093
232,100	0,093
232,200	0,093
232,300	0,093
232,400	0,093
232,500	0,088
232,600	0,093
232,700	0,093
232,800	0,093
232,900	0,088
233,000	0,088
233,100	0,093
233,200	0,093
233,300	0,093
233,400	0,088
233,500	0,088
233,600	0,088
233,700	0,088
233,800	0,088
233,900	0,088
234,000	0,088
234,100	0,088
234,200	0,088
234,300	0,088
234,400	0,088
234,500	0,093
234,600	0,088
234,700	0,088
234,800	0,088
234,900	0,088
235,000	0,088
235,100	0,088
235,200	0,088
235,300	0,088
235,400	0,088
235,500	0,088
235,600	0,088
235,700	0,088
235,800	0,088
235,900	0,088
236,000	0,088
236,100	0,088
236,200	0,088
236,300	0,088
236,400	0,088
236,500	0,083
236,600	0,088
236,700	0,088
236,800	0,088
236,900	0,088
237,000	0,088
237,100	0,088
237,200	0,088
237,300	0,083
237,400	0,088
237,500	0,083
237,600	0,083
237,700	0,088
237,800	0,088
237,900	0,088
238,000	0,088
238,100	0,088
238,200	0,088
238,300	0,088
238,400	0,088
238,500	0,083
238,600	0,088
238,700	0,088
238,800	0,088
238,900	0,083
239,000	0,088
239,100	0,083
239,200	0,083
239,300	0,083
239,400	0,083
239,500	0,083
239,600	0,088
239,700	0,083
239,800	0,083
239,900	0,088
240,000	0,083
240,100	0,083
240,200	0,083
240,300	0,083
240,400	0,083
240,500	0,083
240,600	0,083
240,700	0,083
240,800	0,083
240,900	0,083
241,000	0,083
241,100	0,083
241,200	0,083
241,300	0,083
241,400	0,077
241,500	0,083
241,600	0,077
241,700	0,083
241,800	0,083
241,900	0,083
242,000	0,077
242,100	0,083
242,200	0,083
242,300	0,083
242,400	0,077
242,500	0,083
242,600	0,083
242,700	0,083
242,800	0,083
242,900	0,083
243,000	0,083
243,100	0,083
243,200	0,077
243,300	0,083
243,400	0,083
243,500	0,077
243,600	0,077
243,700	0,077
243,800	0,077
243,900	0,083
244,000	0,077
244,100	0,077
244,200	0,077
244,300	0,083
244,400	0,077
244,500	0,077
244,600	0,077
244,700	0,077
244,800	0,083
244,900	0,077
245,000	0,077
245,100	0,083
245,200	0,077
245,300	0,077
245,400	0,077
245,500	0,083
245,600	0,077
245,700	0,077
245,800	0,077
245,900	0,077
246,000	0,077
246,100	0,077
246,200	0,077
246,300	0,077
246,400	0,077
246,500	0,077
246,600	0,077
246,700	0,077
246,800	0,077
246,900	0,077
247,000	0,077
247,100	0,077
247,200	0,077
247,300	0,077
247,400	0,077
247,500	0,077
247,600	0,077
247,700	0,077
247,800	0,077
247,900	0,077
248,000	0,077
248,100	0,077
248,200	0,077
248,300	0,077
248,400	0,077
248,500	0,072
248,600	0,077
248,700	0,077
248,800	0,077
248,900	0,077
249,000	0,077
249,100	0,077
249,200	0,077
249,300	0,077
249,400	0,077
249,500	0,077
249,600	0,077
249,700	0,077
249,800	0,077
249,900	0,077
250,000	0,072
250,100	0,072
250,200	0,077
250,300	0,072
250,400	0,072
250,500	0,072
250,600	0,072
250,700	0,077
250,800	0,072
250,900	0,072
251,000	0,072
251,100	0,072
251,200	0,072
251,300	0,077
251,400	0,077
251,500	0,077
251,600	0,077
251,700	0,072
251,800	0,072
251,900	0,072
252,000	0,072
252,100	0,072
252,200	0,072
252,300	0,072
252,400	0,072
252,500	0,072
252,600	0,072
252,700	0,072
252,800	0,072
252,900	0,072
253,000	0,077
253,100	0,072
253,200	0,072
253,300	0,072
253,400	0,072
253,500	0,072
253,600	0,072
253,700	0,072
253,800	0,072
253,900	0,072
254,000	0,072
254,100	0,072
254,200	0,072
254,300	0,072
254,400	0,072
254,500	0,072
254,600	0,072
254,700	0,072
254,800	0,072
254,900	0,072
255,000	0,072
255,100	0,067
255,200	0,072
255,300	0,072
255,400	0,072
255,500	0,072
255,600	0,072
255,700	0,072
255,800	0,072
255,900	0,072
256,000	0,072
256,100	0,072
256,200	0,072
256,300	0,067
256,400	0,067
256,500	0,072
256,600	0,072
256,700	0,072
256,800	0,072
256,900	0,072
257,000	0,067
257,100	0,072
257,200	0,072
257,300	0,072
257,400	0,072
257,500	0,072
257,600	0,072
257,700	0,067
257,800	0,072
257,900	0,067
258,000	0,067
258,100	0,067
258,200	0,067
258,300	0,067
258,400	0,072
258,500	0,067
258,600	0,072
258,700	0,067
258,800	0,067
258,900	0,067
259,000	0,072
259,100	0,072
259,200	0,067
259,300	0,072
259,400	0,067
259,500	0,067
259,600	0,067
259,700	0,067
259,800	0,067
259,900	0,067
260,000	0,067
260,100	0,067
260,200	0,067
260,300	0,072
260,400	0,067
260,500	0,072
260,600	0,067
260,700	0,067
260,800	0,067
260,900	0,067
261,000	0,067
261,100	0,067
261,200	0,067
261,300	0,067
261,400	0,067
261,500	0,067
261,600	0,067
261,700	0,067
261,800	0,067
261,900	0,067
262,000	0,067
262,100	0,067
262,200	0,067
262,300	0,067
262,400	0,067
262,500	0,067
262,600	0,067
262,700	0,067
262,800	0,067
262,900	0,067
263,000	0,067
263,100	0,067
263,200	0,067
263,300	0,067
263,400	0,067
263,500	0,067
263,600	0,067
263,700	0,067
263,800	0,067
263,900	0,067
264,000	0,067
264,100	0,062
264,200	0,067
264,300	0,067
264,400	0,067
264,500	0,067
264,600	0,067
264,700	0,067
264,800	0,067
264,900	0,067
265,000	0,067
265,100	0,067
265,200	0,062
265,300	0,067
265,400	0,067
265,500	0,062
265,600	0,062
265,700	0,067
265,800	0,062
265,900	0,067
266,000	0,062
266,100	0,062
266,200	0,067
266,300	0,062
266,400	0,067
266,500	0,062
266,600	0,062
266,700	0,067
266,800	0,067
266,900	0,062
267,000	0,062
267,100	0,067
267,200	0,062
267,300	0,062
267,400	0,062
267,500	0,062
267,600	0,067
267,700	0,062
267,800	0,062
267,900	0,062
268,000	0,067
268,100	0,067
268,200	0,062
268,300	0,062
268,400	0,062
268,500	0,062
268,600	0,062
268,700	0,062
268,800	0,062
268,900	0,062
269,000	0,062
269,100	0,062
269,200	0,062
269,300	0,062
269,400	0,062
269,500	0,062
269,600	0,062
269,700	0,062
269,800	0,062
269,900	0,062
270,000	0,062
270,100	0,062
270,200	0,062
270,300	0,062
270,400	0,062
270,500	0,062
270,600	0,062
270,700	0,062
270,800	0,062
270,900	0,062
271,000	0,067
271,100	0,062
271,200	0,062
271,300	0,062
271,400	0,062
271,500	0,067
271,600	0,062
271,700	0,062
271,800	0,062
271,900	0,062
272,000	0,062
272,100	0,062
272,200	0,062
272,300	0,062
272,400	0,062
272,500	0,062
272,600	0,062
272,700	0,062
272,800	0,062
272,900	0,062
273,000	0,057
273,100	0,062
273,200	0,062
273,300	0,057
273,400	0,062
273,500	0,057
273,600	0,062
273,700	0,057
273,800	0,062
273,900	0,062
274,000	0,062
274,100	0,062
274,200	0,057
274,300	0,062
274,400	0,062
274,500	0,062
274,600	0,057
274,700	0,062
274,800	0,062
274,900	0,062
275,000	0,057
275,100	0,057
275,200	0,062
275,300	0,057
275,400	0,057
275,500	0,062
275,600	0,062
275,700	0,062
275,800	0,057
275,900	0,057
276,000	0,057
276,100	0,057
276,200	0,057
276,300	0,062
276,400	0,057
276,500	0,057
276,600	0,062
276,700	0,057
276,800	0,057
276,900	0,057
277,000	0,057
277,100	0,062
277,200	0,057
277,300	0,062
277,400	0,057
277,500	0,057
277,600	0,062
277,700	0,057
277,800	0,062
277,900	0,057
278,000	0,057
278,100	0,057
278,200	0,057
278,300	0,057
278,400	0,057
278,500	0,057
278,600	0,057
278,700	0,057
278,800	0,057
278,900	0,057
279,000	0,057
279,100	0,057
279,200	0,057
279,300	0,057
279,400	0,057
279,500	0,057
279,600	0,057
279,700	0,057
279,800	0,057
279,900	0,057
280,000	0,057
280,100	0,062
280,200	0,062
280,300	0,057
280,400	0,057
280,500	0,057
280,600	0,057
280,700	0,057
280,800	0,057
280,900	0,057
281,000	0,057
281,100	0,052
281,200	0,057
281,300	0,052
281,400	0,057
281,500	0,057
281,600	0,057
281,700	0,057
281,800	0,057
281,900	0,057
282,000	0,057
282,100	0,057
282,200	0,057
282,300	0,057
282,400	0,057
282,500	0,057
282,600	0,057
282,700	0,057
282,800	0,057
282,900	0,057
283,000	0,057
283,100	0,057
283,200	0,057
283,300	0,057
283,400	0,057
283,500	0,057
283,600	0,057
283,700	0,062
283,800	0,057
283,900	0,052
284,000	0,057
284,100	0,057
284,200	0,057
284,300	0,057
284,400	0,057
284,500	0,057
284,600	0,057
284,700	0,057
284,800	0,057
284,900	0,057
285,000	0,057
285,100	0,057
285,200	0,057
285,300	0,057
285,400	0,052
285,500	0,052
285,600	0,057
285,700	0,057
285,800	0,052
285,900	0,052
286,000	0,057
286,100	0,057
286,200	0,057
286,300	0,057
286,400	0,057
286,500	0,052
286,600	0,052
286,700	0,057
286,800	0,052
286,900	0,052
287,000	0,057
287,100	0,057
287,200	0,057
287,300	0,052
287,400	0,052
287,500	0,057
287,600	0,057
287,700	0,057
287,800	0,052
287,900	0,052
288,000	0,052
288,100	0,057
288,200	0,052
288,300	0,057
288,400	0,057
288,500	0,052
288,600	0,052
288,700	0,057
288,800	0,057
288,900	0,057
289,000	0,052
289,100	0,052
289,200	0,052
289,300	0,057
289,400	0,057
289,500	0,052
289,600	0,052
289,700	0,057
289,800	0,052
289,900	0,057
290,000	0,052
290,100	0,052
290,200	0,052
290,300	0,052
290,400	0,057
290,500	0,052
290,600	0,052
290,700	0,052
290,800	0,052
290,900	0,052
291,000	0,052
291,100	0,052
291,200	0,052
291,300	0,057
291,400	0,052
291,500	0,052
291,600	0,057
291,700	0,057
291,800	0,057
291,900	0,052
292,000	0,057
292,100	0,052
292,200	0,052
292,300	0,052
292,400	0,052
292,500	0,052
292,600	0,052
292,700	0,052
292,800	0,052
292,900	0,052
293,000	0,052
293,100	0,052
293,200	0,052
293,300	0,057
293,400	0,052
293,500	0,052
293,600	0,052
293,700	0,052
293,800	0,052
293,900	0,057
294,000	0,052
294,100	0,052
294,200	0,052
294,300	0,057
294,400	0,052
294,500	0,046
294,600	0,052
294,700	0,052
294,800	0,052
294,900	0,052
295,000	0,052
295,100	0,052
295,200	0,052
295,300	0,052
295,400	0,052
295,500	0,046
295,600	0,052
295,700	0,052
295,800	0,052
295,900	0,052
296,000	0,052
296,100	0,052
296,200	0,052
296,300	0,052
296,400	0,052
296,500	0,052
296,600	0,052
296,700	0,052
296,800	0,052
296,900	0,052
297,000	0,052
297,100	0,052
297,200	0,052
297,300	0,052
297,400	0,046
297,500	0,052
297,600	0,052
297,700	0,052
297,800	0,052
297,900	0,052
298,000	0,052
298,100	0,052
298,200	0,052
298,300	0,052
298,400	0,052
298,500	0,052
298,600	0,052
298,700	0,052
298,800	0,052
298,900	0,052
299,000	0,052
299,100	0,052
299,200	0,052
299,300	0,052
299,400	0,052
299,500	0,052
299,600	0,052
299,700	0,052
299,800	0,052
299,900	0,052
300,000	0,052
300,100	0,052
300,200	0,052
300,300	0,052
300,400	0,052
300,500	0,052
300,600	0,052
300,700	0,046
300,800	0,052
300,900	0,052
301,000	0,052
301,100	0,052
301,200	0,052
301,300	0,052
301,400	0,052
301,500	0,046
301,600	0,052
301,700	0,052
301,800	0,052
301,900	0,052
302,000	0,052
302,100	0,052
302,200	0,052
302,300	0,046
302,400	0,052
302,500	0,052
302,600	0,052
302,700	0,052
302,800	0,052
302,900	0,052
303,000	0,052
303,100	0,052
303,200	0,046
303,300	0,052
303,400	0,052
303,500	0,052
303,600	0,052
303,700	0,052
303,800	0,046
303,900	0,046
304,000	0,046
304,100	0,046
304,200	0,052
304,300	0,052
304,400	0,046
304,500	0,052
304,600	0,052
304,700	0,046
304,800	0,046
304,900	0,052
305,000	0,046
305,100	0,052
305,200	0,046
305,300	0,046
305,400	0,052
305,500	0,046
305,600	0,052
305,700	0,052
305,800	0,052
305,900	0,052
306,000	0,052
306,100	0,046
306,200	0,046
306,300	0,052
306,400	0,046
306,500	0,046
306,600	0,046
306,700	0,046
306,800	0,046
306,900	0,046
307,000	0,046
307,100	0,046
307,200	0,052
307,300	0,052
307,400	0,046
307,500	0,046
307,600	0,046
307,700	0,052
307,800	0,046
307,900	0,046
308,000	0,052
308,100	0,052
308,200	0,052
308,300	0,046
308,400	0,052
308,500	0,046
308,600	0,052
308,700	0,046
308,800	0,046
308,900	0,046
309,000	0,046
309,100	0,046
309,200	0,046
309,300	0,052
309,400	0,046
309,500	0,046
309,600	0,046
309,700	0,046
309,800	0,046
309,900	0,046
310,000	0,046
310,100	0,046
310,200	0,052
310,300	0,046
310,400	0,046
310,500	0,046
310,600	0,046
310,700	0,046
310,800	0,046
310,900	0,046
311,000	0,046
311,100	0,046
311,200	0,046
311,300	0,046
311,400	0,052
311,500	0,046
311,600	0,046
311,700	0,052
311,800	0,046
311,900	0,046
312,000	0,046
312,100	0,046
312,200	0,046
312,300	0,046
312,400	0,046
312,500	0,046
312,600	0,046
312,700	0,046
312,800	0,046
312,900	0,046
313,000	0,046
313,100	0,046
313,200	0,052
313,300	0,046
313,400	0,052
313,500	0,046
313,600	0,046
313,700	0,046
313,800	0,046
313,900	0,046
314,000	0,046
314,100	0,046
314,200	0,046
314,300	0,046
314,400	0,046
314,500	0,046
314,600	0,046
314,700	0,046
314,800	0,046
314,900	0,046
315,000	0,046
315,100	0,046
315,200	0,046
315,300	0,046
315,400	0,046
315,500	0,052
315,600	0,046
315,700	0,046
315,800	0,046
315,900	0,046
316,000	0,046
316,100	0,041
316,200	0,046
316,300	0,046
316,400	0,046
316,500	0,041
316,600	0,046
316,700	0,046
316,800	0,046
316,900	0,046
317,000	0,041
317,100	0,046
317,200	0,046
317,300	0,046
317,400	0,046
317,500	0,046
317,600	0,046
317,700	0,046
317,800	0,046
317,900	0,046
318,000	0,046
318,100	0,046
318,200	0,046
318,300	0,046
318,400	0,046
318,500	0,046
318,600	0,046
318,700	0,046
318,800	0,046
318,900	0,046
319,000	0,046
319,100	0,046
319,200	0,046
319,300	0,046
319,400	0,046
319,500	0,046
319,600	0,041
319,700	0,046
319,800	0,041
319,900	0,046
320,000	0,046
320,100	0,046
320,200	0,046
320,300	0,046
320,400	0,046
320,500	0,041
320,600	0,046
320,700	0,046
320,800	0,046
320,900	0,046
321,000	0,046
321,100	0,046
321,200	0,046
321,300	0,046
321,400	0,046
321,500	0,046
321,600	0,041
321,700	0,046
321,800	0,046
321,900	0,046
322,000	0,046
322,100	0,046
322,200	0,041
322,300	0,046
322,400	0,046
322,500	0,046
322,600	0,046
322,700	0,041
322,800	0,046
322,900	0,046
323,000	0,041
323,100	0,041
323,200	0,046
323,300	0,041
323,400	0,046
323,500	0,046
323,600	0,046
323,700	0,046
323,800	0,046
323,900	0,046
324,000	0,046
324,100	0,046
324,200	0,046
324,300	0,046
324,400	0,046
324,500	0,046
324,600	0,046
324,700	0,046
324,800	0,046
324,900	0,046
325,000	0,046
325,100	0,046
325,200	0,046
325,300	0,046
325,400	0,041
325,500	0,041
325,600	0,041
325,700	0,046
325,800	0,046
325,900	0,046
326,000	0,041
326,100	0,046
326,200	0,046
326,300	0,046
326,400	0,046
326,500	0,041
326,600	0,046
326,700	0,041
326,800	0,041
326,900	0,046
327,000	0,046
327,100	0,041
327,200	0,041
327,300	0,041
327,400	0,041
327,500	0,041
327,600	0,046
327,700	0,046
327,800	0,041
327,900	0,041
328,000	0,041
328,100	0,041
328,200	0,041
328,300	0,046
328,400	0,041
328,500	0,046
328,600	0,041
328,700	0,046
328,800	0,041
328,900	0,041
329,000	0,041
329,100	0,046
329,200	0,041
329,300	0,046
329,400	0,041
329,500	0,046
329,600	0,046
329,700	0,041
329,800	0,041
329,900	0,046
330,000	0,046
330,100	0,041
330,200	0,046
330,300	0,041
330,400	0,041
330,500	0,046
330,600	0,041
330,700	0,046
330,800	0,041
330,900	0,041
331,000	0,041
331,100	0,041
331,200	0,041
331,300	0,041
331,400	0,041
331,500	0,046
331,600	0,041
331,700	0,041
331,800	0,041
331,900	0,041
332,000	0,041
332,100	0,041
332,200	0,041
332,300	0,041
332,400	0,041
332,500	0,041
332,600	0,041
332,700	0,041
332,800	0,046
332,900	0,046
333,000	0,046
333,100	0,041
333,200	0,041
333,300	0,046
333,400	0,041
333,500	0,041
333,600	0,046
333,700	0,041
333,800	0,041
333,900	0,041
334,000	0,046
334,100	0,046
334,200	0,041
334,300	0,041
334,400	0,041
334,500	0,041
334,600	0,041
334,700	0,041
334,800	0,041
334,900	0,041
335,000	0,041
335,100	0,041
335,200	0,041
335,300	0,041
335,400	0,041
335,500	0,041
335,600	0,046
335,700	0,041
335,800	0,041
335,900	0,046
336,000	0,046
336,100	0,041
336,200	0,046
336,300	0,041
336,400	0,041
336,500	0,041
336,600	0,041
336,700	0,046
336,800	0,046
336,900	0,041
337,000	0,041
337,100	0,041
337,200	0,041
337,300	0,041
337,400	0,041
337,500	0,041
337,600	0,041
337,700	0,041
337,800	0,041
337,900	0,041
338,000	0,041
338,100	0,041
338,200	0,041
338,300	0,041
338,400	0,041
338,500	0,041
338,600	0,041
338,700	0,041
338,800	0,041
338,900	0,041
339,000	0,046
339,100	0,041
339,200	0,041
339,300	0,041
339,400	0,041
339,500	0,041
339,600	0,041
339,700	0,041
339,800	0,041
339,900	0,041
340,000	0,041
340,100	0,041
340,200	0,041
340,300	0,041
340,400	0,041
340,500	0,041
340,600	0,041
340,700	0,041
340,800	0,041
340,900	0,041
341,000	0,041
341,100	0,041
341,200	0,041
341,300	0,041
341,400	0,041
341,500	0,041
341,600	0,041
341,700	0,041
341,800	0,041
341,900	0,041
342,000	0,041
342,100	0,041
342,200	0,041
342,300	0,036
342,400	0,041
342,500	0,041
342,600	0,041
342,700	0,041
342,800	0,041
342,900	0,041
343,000	0,041
343,100	0,041
343,200	0,041
343,300	0,041
343,400	0,041
343,500	0,041
343,600	0,041
343,700	0,041
343,800	0,041
343,900	0,041
344,000	0,041
344,100	0,041
344,200	0,041
344,300	0,041
344,400	0,041
344,500	0,041
344,600	0,041
344,700	0,041
344,800	0,041
344,900	0,041
345,000	0,041
345,100	0,041
345,200	0,041
345,300	0,041
345,400	0,041
345,500	0,041
345,600	0,041
345,700	0,041
345,800	0,041
345,900	0,041
346,000	0,041
346,100	0,041
346,200	0,041
346,300	0,041
346,400	0,041
346,500	0,036
346,600	0,041
346,700	0,041
346,800	0,041
346,900	0,041
347,000	0,041
347,100	0,041
347,200	0,041
347,300	0,041
347,400	0,041
347,500	0,041
347,600	0,041
347,700	0,036
347,800	0,041
347,900	0,041
348,000	0,041
348,100	0,041
348,200	0,041
348,300	0,041
348,400	0,041
348,500	0,036
348,600	0,041
348,700	0,041
348,800	0,041
348,900	0,041
349,000	0,041
349,100	0,041
349,200	0,041
349,300	0,041
349,400	0,041
349,500	0,041
349,600	0,041
349,700	0,041
349,800	0,041
349,900	0,036
350,000	0,041
350,100	0,041
350,200	0,041
350,300	0,041
350,400	0,041
350,500	0,041
350,600	0,036
350,700	0,041
350,800	0,041
350,900	0,041
351,000	0,041
351,100	0,041
351,200	0,041
351,300	0,041
351,400	0,041
351,500	0,041
351,600	0,036
351,700	0,041
351,800	0,041
351,900	0,041
352,000	0,041
352,100	0,041
352,200	0,041
352,300	0,041
352,400	0,041
352,500	0,041
352,600	0,041
352,700	0,041
352,800	0,041
352,900	0,041
353,000	0,041
353,100	0,041
353,200	0,041
353,300	0,041
353,400	0,041
353,500	0,041
353,600	0,041
353,700	0,036
353,800	0,041
353,900	0,041
354,000	0,041
354,100	0,041
354,200	0,041
354,300	0,041
354,400	0,041
354,500	0,041
354,600	0,041
354,700	0,036
354,800	0,041
354,900	0,041
355,000	0,041
355,100	0,036
355,200	0,041
355,300	0,041
355,400	0,041
355,500	0,041
355,600	0,041
355,700	0,036
355,800	0,041
355,900	0,036
356,000	0,036
356,100	0,041
356,200	0,041
356,300	0,036
356,400	0,041
356,500	0,041
356,600	0,041
356,700	0,041
356,800	0,041
356,900	0,041
357,000	0,041
357,100	0,041
357,200	0,041
357,300	0,041
357,400	0,041
357,500	0,041
357,600	0,041
357,700	0,041
357,800	0,041
357,900	0,036
358,000	0,041
358,100	0,041
358,200	0,041
358,300	0,036
358,400	0,036
358,500	0,036
358,600	0,041
358,700	0,036
358,800	0,041
358,900	0,041
359,000	0,041
359,100	0,041
359,200	0,036
359,300	0,041
359,400	0,041
359,500	0,041
359,600	0,041
359,700	0,041
359,800	0,041
359,900	0,041
360,000	0,041
360,100	0,041
360,200	0,036
360,300	0,041
360,400	0,041
360,500	0,041
360,600	0,041
360,700	0,036
360,800	0,041
360,900	0,041
361,000	0,041
361,100	0,041
361,200	0,041
361,300	0,041
361,400	0,036
361,500	0,036
361,600	0,036
361,700	0,036
361,800	0,041
361,900	0,036
362,000	0,036
362,100	0,041
362,200	0,036
362,300	0,041
362,400	0,036
362,500	0,041
362,600	0,041
362,700	0,036
362,800	0,036
362,900	0,036
363,000	0,041
363,100	0,036
363,200	0,036
363,300	0,036
363,400	0,041
363,500	0,036
363,600	0,036
363,700	0,036
363,800	0,041
363,900	0,036
364,000	0,041
364,100	0,036
364,200	0,041
364,300	0,036
364,400	0,036
364,500	0,036
364,600	0,041
364,700	0,041
364,800	0,036
364,900	0,041
365,000	0,041
365,100	0,041
365,200	0,041
365,300	0,041
365,400	0,036
365,500	0,036
365,600	0,036
365,700	0,041
365,800	0,041
365,900	0,041
366,000	0,041
366,100	0,041
366,200	0,041
366,300	0,041
366,400	0,041
366,500	0,041
366,600	0,036
366,700	0,041
366,800	0,041
366,900	0,041
367,000	0,041
367,100	0,041
367,200	0,041
367,300	0,041
367,400	0,041
367,500	0,041
367,600	0,041
367,700	0,036
367,800	0,036
367,900	0,036
368,000	0,036
368,100	0,036
368,200	0,036
368,300	0,041
368,400	0,036
368,500	0,036
368,600	0,036
368,700	0,036
368,800	0,036
368,900	0,036
369,000	0,036
369,100	0,036
369,200	0,036
369,300	0,036
369,400	0,041
369,500	0,036
369,600	0,041
369,700	0,036
369,800	0,036
369,900	0,036
370,000	0,036
370,100	0,041
370,200	0,036
370,300	0,036
370,400	0,041
370,500	0,036
370,600	0,041
370,700	0,041
370,800	0,036
370,900	0,036
371,000	0,036
371,100	0,036
371,200	0,041
371,300	0,036
371,400	0,036
371,500	0,036
371,600	0,041
371,700	0,041
371,800	0,041
371,900	0,036
372,000	0,036
372,100	0,036
372,200	0,036
372,300	0,036
372,400	0,036
372,500	0,036
372,600	0,036
372,700	0,036
372,800	0,036
372,900	0,036
373,000	0,036
373,100	0,041
373,200	0,036
373,300	0,041
373,400	0,041
373,500	0,036
373,600	0,036
373,700	0,036
373,800	0,036
373,900	0,036
374,000	0,041
374,100	0,036
374,200	0,036
374,300	0,041
374,400	0,036
374,500	0,036
374,600	0,041
374,700	0,036
374,800	0,036
374,900	0,041
375,000	0,036
375,100	0,036
375,200	0,036
375,300	0,036
375,400	0,036
375,500	0,036
375,600	0,036
375,700	0,041
375,800	0,036
375,900	0,036
376,000	0,041
376,100	0,036
376,200	0,036
376,300	0,036
376,400	0,036
376,500	0,036
376,600	0,036
376,700	0,036
376,800	0,036
376,900	0,041
377,000	0,036
377,100	0,036
377,200	0,041
377,300	0,036
377,400	0,036
377,500	0,036
377,600	0,041
377,700	0,041
377,800	0,036
377,900	0,036
378,000	0,036
378,100	0,036
378,200	0,036
378,300	0,036
378,400	0,036
378,500	0,041
378,600	0,041
378,700	0,036
378,800	0,036
378,900	0,036
379,000	0,036
379,100	0,036
379,200	0,036
379,300	0,036
379,400	0,036
379,500	0,036
379,600	0,041
379,700	0,036
379,800	0,036
379,900	0,036
380,000	0,036
380,100	0,036
380,200	0,041
380,300	0,036
380,400	0,036
380,500	0,036
380,600	0,036
380,700	0,036
380,800	0,036
380,900	0,036
381,000	0,036
381,100	0,036
381,200	0,036
381,300	0,041
381,400	0,036
381,500	0,036
381,600	0,036
381,700	0,036
381,800	0,036
381,900	0,036
382,000	0,036
382,100	0,036
382,200	0,036
382,300	0,036
382,400	0,036
382,500	0,036
382,600	0,041
382,700	0,036
382,800	0,041
382,900	0,036
383,000	0,036
383,100	0,036
383,200	0,036
383,300	0,036
383,400	0,036
383,500	0,036
383,600	0,036
383,700	0,036
383,800	0,036
383,900	0,036
384,000	0,036
384,100	0,036
384,200	0,036
384,300	0,036
384,400	0,036
384,500	0,036
384,600	0,036
384,700	0,036
384,800	0,036
384,900	0,036
385,000	0,036
385,100	0,036
385,200	0,036
385,300	0,036
385,400	0,036
385,500	0,036
385,600	0,036
385,700	0,036
385,800	0,036
385,900	0,036
386,000	0,036
386,100	0,036
386,200	0,036
386,300	0,036
386,400	0,036
386,500	0,036
386,600	0,036
386,700	0,036
386,800	0,036
386,900	0,036
387,000	0,036
387,100	0,036
387,200	0,036
387,300	0,036
387,400	0,036
387,500	0,036
387,600	0,036
387,700	0,036
387,800	0,036
387,900	0,036
388,000	0,036
388,100	0,036
388,200	0,041
388,300	0,036
388,400	0,036
388,500	0,036
388,600	0,036
388,700	0,036
388,800	0,036
388,900	0,041
389,000	0,036
389,100	0,036
389,200	0,036
389,300	0,036
389,400	0,036
389,500	0,036
389,600	0,036
389,700	0,036
389,800	0,036
389,900	0,036
390,000	0,036
390,100	0,036
390,200	0,036
390,300	0,036
390,400	0,036
390,500	0,036
390,600	0,036
390,700	0,036
390,800	0,036
390,900	0,036
391,000	0,036
391,100	0,036
391,200	0,036
391,300	0,036
391,400	0,036
391,500	0,036
391,600	0,036
391,700	0,036
391,800	0,036
391,900	0,036
392,000	0,036
392,100	0,036
392,200	0,036
392,300	0,036
392,400	0,036
392,500	0,036
392,600	0,036
392,700	0,036
392,800	0,036
392,900	0,036
393,000	0,036
393,100	0,036
393,200	0,036
393,300	0,036
393,400	0,036
393,500	0,036
393,600	0,036
393,700	0,036
393,800	0,036
393,900	0,036
394,000	0,036
394,100	0,036
394,200	0,036
394,300	0,036
394,400	0,036
394,500	0,036
394,600	0,036
394,700	0,036
394,800	0,036
394,900	0,036
395,000	0,036
395,100	0,036
395,200	0,036
395,300	0,036
395,400	0,036
395,500	0,036
395,600	0,036
395,700	0,036
395,800	0,036
395,900	0,036
396,000	0,036
396,100	0,036
396,200	0,036
396,300	0,036
396,400	0,036
396,500	0,036
396,600	0,036
396,700	0,036
396,800	0,036
396,900	0,036
397,000	0,036
397,100	0,036
397,200	0,036
397,300	0,036
397,400	0,036
397,500	0,036
397,600	0,036
397,700	0,041
397,800	0,036
397,900	0,036
398,000	0,036
398,100	0,031
398,200	0,036
398,300	0,036
398,400	0,036
398,500	0,036
398,600	0,036
398,700	0,036
398,800	0,036
398,900	0,036
399,000	0,036
399,100	0,036
399,200	0,031
399,300	0,036
399,400	0,036
399,500	0,036
399,600	0,036
399,700	0,036
399,800	0,036
399,900	0,036
400,000	0,036
400,100	0,036
400,200	0,036
400,300	0,036
400,400	0,036
400,500	0,036
400,600	0,036
400,700	0,036
400,800	0,036
400,900	0,036
401,000	0,036
401,100	0,036
401,200	0,036
401,300	0,036
401,400	0,036
401,500	0,036
401,600	0,036
401,700	0,036
401,800	0,036
401,900	0,036
402,000	0,036
402,100	0,036
402,200	0,036
402,300	0,036
402,400	0,036
402,500	0,036
402,600	0,036
402,700	0,036
402,800	0,036
402,900	0,036
403,000	0,031
403,100	0,036
403,200	0,036
403,300	0,036
403,400	0,036
403,500	0,036
403,600	0,036
403,700	0,036
403,800	0,036
403,900	0,036
404,000	0,036
404,100	0,031
404,200	0,036
404,300	0,036
404,400	0,036
404,500	0,031
404,600	0,036
404,700	0,036
404,800	0,036
404,900	0,036
405,000	0,036
405,100	0,036
405,200	0,036
405,300	0,036
405,400	0,036
405,500	0,036
405,600	0,036
405,700	0,036
405,800	0,036
405,900	0,036
406,000	0,036
406,100	0,036
406,200	0,036
406,300	0,036
406,400	0,036
406,500	0,036
406,600	0,036
406,700	0,031
406,800	0,036
406,900	0,036
407,000	0,031
407,100	0,036
407,200	0,036
407,300	0,036
407,400	0,036
407,500	0,036
407,600	0,036
407,700	0,036
407,800	0,036
407,900	0,036
408,000	0,036
408,100	0,036
408,200	0,036
408,300	0,031
408,400	0,036
408,500	0,036
408,600	0,036
408,700	0,036
408,800	0,036
408,900	0,036
409,000	0,036
409,100	0,036
409,200	0,036
409,300	0,036
409,400	0,036
409,500	0,036
409,600	0,036
409,700	0,036
409,800	0,036
409,900	0,036
410,000	0,036
410,100	0,031
410,200	0,031
410,300	0,036
410,400	0,036
410,500	0,036
410,600	0,036
410,700	0,036
410,800	0,036
410,900	0,036
411,000	0,036
411,100	0,031
411,200	0,036
411,300	0,036
411,400	0,036
411,500	0,036
411,600	0,031
411,700	0,031
411,800	0,031
411,900	0,036
412,000	0,036
412,100	0,036
412,200	0,036
412,300	0,036
412,400	0,036
412,500	0,036
412,600	0,036
412,700	0,036
412,800	0,031
412,900	0,036
413,000	0,036
413,100	0,036
413,200	0,036
413,300	0,036
413,400	0,036
413,500	0,036
413,600	0,036
413,700	0,036
413,800	0,036
413,900	0,036
414,000	0,036
414,100	0,036
414,200	0,036
414,300	0,036
414,400	0,036
414,500	0,036
414,600	0,036
414,700	0,036
414,800	0,036
414,900	0,036
415,000	0,036
415,100	0,036
415,200	0,036
415,300	0,036
415,400	0,036
415,500	0,036
415,600	0,031
415,700	0,036
415,800	0,031
415,900	0,036
416,000	0,036
416,100	0,036
416,200	0,036
416,300	0,036
416,400	0,036
416,500	0,036
416,600	0,036
416,700	0,036
416,800	0,036
416,900	0,036
417,000	0,036
417,100	0,031
417,200	0,036
417,300	0,036
417,400	0,036
417,500	0,036
417,600	0,036
417,700	0,031
417,800	0,036
417,900	0,036
418,000	0,036
418,100	0,036
418,200	0,031
418,300	0,036
418,400	0,036
418,500	0,036
418,600	0,036
418,700	0,036
418,800	0,036
418,900	0,036
419,000	0,036
419,100	0,036
419,200	0,036
419,300	0,031
419,400	0,036
419,500	0,036
419,600	0,036
419,700	0,036
419,800	0,036
419,900	0,036
420,000	0,036
420,100	0,036
420,200	0,036
420,300	0,036
420,400	0,036
420,500	0,036
420,600	0,036
420,700	0,031
420,800	0,031
420,900	0,036
421,000	0,036
421,100	0,036
421,200	0,036
421,300	0,036
421,400	0,036
421,500	0,036
421,600	0,036
421,700	0,036
421,800	0,036
421,900	0,036
422,000	0,036
422,100	0,031
422,200	0,031
422,300	0,036
422,400	0,036
422,500	0,036
422,600	0,036
422,700	0,036
422,800	0,031
422,900	0,036
423,000	0,036
423,100	0,036
423,200	0,036
423,300	0,036
423,400	0,036
423,500	0,036
423,600	0,036
423,700	0,036
423,800	0,036
423,900	0,036
424,000	0,036
424,100	0,036
424,200	0,031
424,300	0,036
424,400	0,036
424,500	0,031
424,600	0,036
424,700	0,031
424,800	0,036
424,900	0,036
425,000	0,031
425,100	0,036
425,200	0,036
425,300	0,036
425,400	0,036
425,500	0,036
425,600	0,036
425,700	0,036
425,800	0,031
425,900	0,036
426,000	0,036
426,100	0,036
426,200	0,036
426,300	0,036
426,400	0,036
426,500	0,036
426,600	0,036
426,700	0,036
426,800	0,036
426,900	0,036
427,000	0,031
427,100	0,036
427,200	0,036
427,300	0,036
427,400	0,031
427,500	0,031
427,600	0,031
427,700	0,031
427,800	0,031
427,900	0,036
428,000	0,036
428,100	0,036
428,200	0,036
428,300	0,031
428,400	0,031
428,500	0,036
428,600	0,031
428,700	0,031
428,800	0,036
428,900	0,036
429,000	0,036
429,100	0,036
429,200	0,031
429,300	0,036
429,400	0,036
429,500	0,036
429,600	0,036
429,700	0,036
429,800	0,036
429,900	0,036
430,000	0,031
430,100	0,031
430,200	0,031
430,300	0,036
430,400	0,036
430,500	0,031
430,600	0,036
430,700	0,036
430,800	0,036
430,900	0,036
431,000	0,036
431,100	0,031
431,200	0,036
431,300	0,036
431,400	0,036
431,500	0,036
431,600	0,031
431,700	0,031
431,800	0,036
431,900	0,036
432,000	0,031
432,100	0,036
432,200	0,031
432,300	0,031
432,400	0,031
432,500	0,036
432,600	0,036
432,700	0,036
432,800	0,031
432,900	0,036
433,000	0,031
433,100	0,036
433,200	0,036
433,300	0,031
433,400	0,036
433,500	0,031
433,600	0,031
433,700	0,036
433,800	0,036
433,900	0,031
434,000	0,036
434,100	0,031
434,200	0,031
434,300	0,036
434,400	0,031
434,500	0,031
434,600	0,036
434,700	0,036
434,800	0,036
434,900	0,036
435,000	0,031
435,100	0,036
435,200	0,031
435,300	0,036
435,400	0,031
435,500	0,031
435,600	0,036
435,700	0,036
435,800	0,036
435,900	0,036
436,000	0,036
436,100	0,036
436,200	0,031
436,300	0,036
436,400	0,031
436,500	0,031
436,600	0,031
436,700	0,036
436,800	0,036
436,900	0,036
437,000	0,031
437,100	0,036
437,200	0,031
437,300	0,031
437,400	0,036
437,500	0,031
437,600	0,036
437,700	0,031
437,800	0,031
437,900	0,036
438,000	0,031
438,100	0,031
438,200	0,036
438,300	0,036
438,400	0,036
438,500	0,036
438,600	0,031
438,700	0,031
438,800	0,031
438,900	0,036
439,000	0,031
439,100	0,036
439,200	0,031
439,300	0,036
439,400	0,031
439,500	0,036
439,600	0,031
439,700	0,036
439,800	0,031
439,900	0,031
440,000	0,031
440,100	0,031
440,200	0,036
440,300	0,036
440,400	0,036
440,500	0,036
440,600	0,031
440,700	0,031
440,800	0,031
440,900	0,036
441,000	0,036
441,100	0,031
441,200	0,036
441,300	0,036
441,400	0,036
441,500	0,031
441,600	0,031
441,700	0,031
441,800	0,036
441,900	0,031
442,000	0,031
442,100	0,031
442,200	0,036
442,300	0,031
442,400	0,031
442,500	0,031
442,600	0,036
442,700	0,036
442,800	0,036
442,900	0,031
443,000	0,031
443,100	0,031
443,200	0,031
443,300	0,031
443,400	0,036
443,500	0,031
443,600	0,031
443,700	0,031
443,800	0,031
443,900	0,036
444,000	0,031
444,100	0,031
444,200	0,031
444,300	0,031
444,400	0,036
444,500	0,036
444,600	0,031
444,700	0,031
444,800	0,031
444,900	0,036
445,000	0,036
445,100	0,031
445,200	0,036
445,300	0,031
445,400	0,036
445,500	0,031
445,600	0,036
445,700	0,031
445,800	0,031
445,900	0,031
446,000	0,031
446,100	0,031
446,200	0,036
446,300	0,036
446,400	0,031
446,500	0,036
446,600	0,031
446,700	0,036
446,800	0,036
446,900	0,036
447,000	0,036
447,100	0,031
447,200	0,036
447,300	0,031
447,400	0,031
447,500	0,031
447,600	0,036
447,700	0,036
447,800	0,036
447,900	0,036
448,000	0,031
448,100	0,036
448,200	0,031
448,300	0,031
448,400	0,036
448,500	0,031
448,600	0,036
448,700	0,031
448,800	0,031
448,900	0,031
449,000	0,031
449,100	0,036
449,200	0,031
449,300	0,031
449,400	0,031
449,500	0,036
449,600	0,031
449,700	0,031
449,800	0,031
449,900	0,036
450,000	0,036
450,100	0,036
450,200	0,031
450,300	0,031
450,400	0,036
450,500	0,036
450,600	0,031
450,700	0,031
450,800	0,031
450,900	0,036
451,000	0,031
451,100	0,031
451,200	0,031
451,300	0,031
451,400	0,031
451,500	0,031
451,600	0,036
451,700	0,036
451,800	0,031
451,900	0,036
452,000	0,036
452,100	0,036
452,200	0,031
452,300	0,031
452,400	0,031
452,500	0,031
452,600	0,031
452,700	0,036
452,800	0,036
452,900	0,031
453,000	0,031
453,100	0,031
453,200	0,036
453,300	0,031
453,400	0,031
453,500	0,036
453,600	0,036
453,700	0,031
453,800	0,036
453,900	0,036
454,000	0,031
454,100	0,036
454,200	0,031
454,300	0,031
454,400	0,031
454,500	0,036
454,600	0,031
454,700	0,031
454,800	0,036
454,900	0,031
455,000	0,031
455,100	0,036
455,200	0,036
455,300	0,031
455,400	0,036
455,500	0,031
455,600	0,031
455,700	0,031
455,800	0,031
455,900	0,036
456,000	0,031
456,100	0,031
456,200	0,031
456,300	0,031
456,400	0,036
456,500	0,031
456,600	0,031
456,700	0,036
456,800	0,031
456,900	0,031
457,000	0,031
457,100	0,031
457,200	0,036
457,300	0,036
457,400	0,031
457,500	0,031
457,600	0,031
457,700	0,036
457,800	0,036
457,900	0,031
458,000	0,036
458,100	0,036
458,200	0,031
458,300	0,031
458,400	0,031
458,500	0,031
458,600	0,031
458,700	0,031
458,800	0,031
458,900	0,031
459,000	0,031
459,100	0,036
459,200	0,031
459,300	0,036
459,400	0,031
459,500	0,031
459,600	0,036
459,700	0,036
459,800	0,036
459,900	0,036
460,000	0,036
460,100	0,031
460,200	0,031
460,300	0,036
460,400	0,031
460,500	0,031
460,600	0,036
460,700	0,031
460,800	0,031
460,900	0,031
461,000	0,036
461,100	0,031
461,200	0,031
461,300	0,031
461,400	0,036
461,500	0,031
461,600	0,031
461,700	0,031
461,800	0,031
461,900	0,031
462,000	0,031
462,100	0,031
462,200	0,031
462,300	0,036
462,400	0,036
462,500	0,031
462,600	0,031
462,700	0,031
462,800	0,031
462,900	0,031
463,000	0,031
463,100	0,031
463,200	0,031
463,300	0,036
463,400	0,031
463,500	0,031
463,600	0,036
463,700	0,036
463,800	0,031
463,900	0,036
464,000	0,036
464,100	0,031
464,200	0,031
464,300	0,031
464,400	0,031
464,500	0,031
464,600	0,036
464,700	0,031
464,800	0,031
464,900	0,031
465,000	0,036
465,100	0,036
465,200	0,031
465,300	0,031
465,400	0,036
465,500	0,031
465,600	0,031
465,700	0,031
465,800	0,031
465,900	0,031
466,000	0,036
466,100	0,031
466,200	0,031
466,300	0,036
466,400	0,031
466,500	0,031
466,600	0,031
466,700	0,031
466,800	0,031
466,900	0,031
467,000	0,031
467,100	0,036
467,200	0,031
467,300	0,031
467,400	0,031
467,500	0,031
467,600	0,031
467,700	0,031
467,800	0,031
467,900	0,031
468,000	0,031
468,100	0,031
468,200	0,031
468,300	0,031
468,400	0,036
468,500	0,031
468,600	0,031
468,700	0,031
468,800	0,036
468,900	0,031
469,000	0,031
469,100	0,031
469,200	0,031
469,300	0,031
469,400	0,031
469,500	0,036
469,600	0,031
469,700	0,031
469,800	0,036
469,900	0,031
470,000	0,036
470,100	0,031
470,200	0,031
470,300	0,036
470,400	0,031
470,500	0,031
470,600	0,031
470,700	0,031
470,800	0,031
470,900	0,031
471,000	0,031
471,100	0,031
471,200	0,036
471,300	0,036
471,400	0,031
471,500	0,031
471,600	0,031
471,700	0,031
471,800	0,031
471,900	0,036
472,000	0,031
472,100	0,031
472,200	0,031
472,300	0,031
472,400	0,031
472,500	0,031
472,600	0,031
472,700	0,031
472,800	0,031
472,900	0,031
473,000	0,031
473,100	0,031
473,200	0,031
473,300	0,031
473,400	0,031
473,500	0,036
473,600	0,031
473,700	0,031
473,800	0,031
473,900	0,031
474,000	0,031
474,100	0,031
474,200	0,031
474,300	0,031
474,400	0,031
474,500	0,031
474,600	0,031
474,700	0,031
474,800	0,031
474,900	0,031
475,000	0,031
475,100	0,036
475,200	0,031
475,300	0,031
475,400	0,031
475,500	0,031
475,600	0,031
475,700	0,031
475,800	0,031
475,900	0,031
476,000	0,031
476,100	0,031
476,200	0,036
476,300	0,031
476,400	0,036
476,500	0,031
476,600	0,036
476,700	0,031
476,800	0,031
476,900	0,036
477,000	0,031
477,100	0,036
477,200	0,031
477,300	0,031
477,400	0,031
477,500	0,031
477,600	0,031
477,700	0,031
477,800	0,031
477,900	0,031
478,000	0,031
478,100	0,031
478,200	0,031
478,300	0,031
478,400	0,031
478,500	0,031
478,600	0,036
478,700	0,031
478,800	0,031
478,900	0,031
479,000	0,031
479,100	0,031
479,200	0,036
479,300	0,031
479,400	0,031
479,500	0,031
479,600	0,031
479,700	0,031
479,800	0,031
479,900	0,031
480,000	0,031
480,100	0,031
480,200	0,031
480,300	0,031
480,400	0,031
480,500	0,031
480,600	0,031
480,700	0,031
480,800	0,031
480,900	0,031
481,000	0,031
481,100	0,031
481,200	0,031
481,300	0,036
481,400	0,031
481,500	0,031
481,600	0,031
481,700	0,031
481,800	0,031
481,900	0,036
482,000	0,031
482,100	0,031
482,200	0,031
482,300	0,031
482,400	0,031
482,500	0,031
482,600	0,036
482,700	0,031
482,800	0,026
482,900	0,031
483,000	0,031
483,100	0,031
483,200	0,031
483,300	0,031
483,400	0,031
483,500	0,031
483,600	0,031
483,700	0,031
483,800	0,031
483,900	0,031
484,000	0,031
484,100	0,031
484,200	0,031
484,300	0,031
484,400	0,036
484,500	0,036
484,600	0,031
484,700	0,031
484,800	0,031
484,900	0,031
485,000	0,031
485,100	0,036
485,200	0,031
485,300	0,031
485,400	0,031
485,500	0,031
485,600	0,031
485,700	0,031
485,800	0,031
485,900	0,031
486,000	0,031
486,100	0,031
486,200	0,031
486,300	0,031
486,400	0,031
486,500	0,031
486,600	0,031
486,700	0,036
486,800	0,031
486,900	0,031
487,000	0,031
487,100	0,031
487,200	0,031
487,300	0,031
487,400	0,031
487,500	0,031
487,600	0,031
487,700	0,031
487,800	0,031
487,900	0,036
488,000	0,031
488,100	0,031
488,200	0,031
488,300	0,031
488,400	0,031
488,500	0,031
488,600	0,031
488,700	0,031
488,800	0,031
488,900	0,031
489,000	0,031
489,100	0,031
489,200	0,031
489,300	0,036
489,400	0,031
489,500	0,036
489,600	0,031
489,700	0,031
489,800	0,031
489,900	0,031
490,000	0,031
490,100	0,031
490,200	0,036
490,300	0,031
490,400	0,031
490,500	0,031
490,600	0,031
490,700	0,031
490,800	0,031
490,900	0,031
491,000	0,031
491,100	0,031
491,200	0,031
491,300	0,031
491,400	0,031
491,500	0,031
491,600	0,031
491,700	0,031
491,800	0,031
491,900	0,031
492,000	0,031
492,100	0,031
492,200	0,031
492,300	0,031
492,400	0,031
492,500	0,031
492,600	0,031
492,700	0,031
492,800	0,031
492,900	0,031
493,000	0,031
493,100	0,031
493,200	0,031
493,300	0,031
493,400	0,031
493,500	0,031
493,600	0,031
493,700	0,031
493,800	0,031
493,900	0,031
494,000	0,031
494,100	0,031
494,200	0,031
494,300	0,031
494,400	0,031
494,500	0,026
494,600	0,031
494,700	0,031
494,800	0,031
494,900	0,031
495,000	0,036
495,100	0,031
495,200	0,031
495,300	0,031
495,400	0,031
495,500	0,031
495,600	0,031
495,700	0,031
495,800	0,031
495,900	0,031
496,000	0,031
496,100	0,031
496,200	0,031
496,300	0,031
496,400	0,031
496,500	0,031
496,600	0,031
496,700	0,031
496,800	0,031
496,900	0,031
497,000	0,031
497,100	0,031
497,200	0,031
497,300	0,031
497,400	0,031
497,500	0,031
497,600	0,031
497,700	0,031
497,800	0,031
497,900	0,031
498,000	0,031
498,100	0,031
498,200	0,031
498,300	0,031
498,400	0,031
498,500	0,031
498,600	0,031
498,700	0,031
498,800	0,031
498,900	0,031
499,000	0,036
499,100	0,031
499,200	0,031
499,300	0,031
499,400	0,031
499,500	0,036
499,600	0,031
499,700	0,031
499,800	0,031
499,900	0,031
500,000	0,031
500,100	0,031
500,200	0,031
500,300	0,031
500,400	0,031
500,500	0,031
500,600	0,031
500,700	0,031
500,800	0,031
500,900	0,031
501,000	0,031
501,100	0,031
501,200	0,031
501,300	0,031
501,400	0,031
501,500	0,031
501,600	0,031
501,700	0,031
501,800	0,031
501,900	0,031
502,000	0,031
502,100	0,031
502,200	0,031
502,300	0,031
502,400	0,031
502,500	0,031
502,600	0,031
502,700	0,031
502,800	0,031
502,900	0,031
503,000	0,031
503,100	0,031
503,200	0,031
503,300	0,031
503,400	0,031
503,500	0,031
503,600	0,031
503,700	0,031
503,800	0,031
503,900	0,031
504,000	0,031
504,100	0,031
504,200	0,031
504,300	0,031
504,400	0,031
504,500	0,031
504,600	0,031
504,700	0,031
504,800	0,031
504,900	0,031
505,000	0,031
505,100	0,031
505,200	0,031
505,300	0,031
505,400	0,031
505,500	0,031
505,600	0,031
505,700	0,031
505,800	0,031
505,900	0,031
506,000	0,031
506,100	0,031
506,200	0,026
506,300	0,031
506,400	0,031
506,500	0,031
506,600	0,031
506,700	0,031
506,800	0,031
506,900	0,031
507,000	0,031
507,100	0,031
507,200	0,031
507,300	0,031
507,400	0,031
507,500	0,031
507,600	0,031
507,700	0,031
507,800	0,031
507,900	0,031
508,000	0,031
508,100	0,031
508,200	0,031
508,300	0,031
508,400	0,031
508,500	0,031
508,600	0,031
508,700	0,031
508,800	0,031
508,900	0,031
509,000	0,031
509,100	0,031
509,200	0,031
509,300	0,031
509,400	0,031
509,500	0,031
509,600	0,031
509,700	0,031
509,800	0,031
509,900	0,031
510,000	0,031
510,100	0,031
510,200	0,031
510,300	0,031
510,400	0,031
510,500	0,031
510,600	0,031
510,700	0,031
510,800	0,031
510,900	0,026
511,000	0,031
511,100	0,031
511,200	0,031
511,300	0,031
511,400	0,031
511,500	0,031
511,600	0,031
511,700	0,026
511,800	0,031
511,900	0,031
512,000	0,031
512,100	0,031
512,200	0,031
512,300	0,031
512,400	0,031
512,500	0,031
512,600	0,031
512,700	0,031
512,800	0,031
512,900	0,031
513,000	0,031
513,100	0,031
513,200	0,031
513,300	0,031
513,400	0,031
513,500	0,031
513,600	0,031
513,700	0,031
513,800	0,031
513,900	0,031
514,000	0,031
514,100	0,031
514,200	0,031
514,300	0,031
514,400	0,031
514,500	0,031
514,600	0,031
514,700	0,031
514,800	0,031
514,900	0,026
515,000	0,026
515,100	0,031
515,200	0,031
515,300	0,031
515,400	0,031
515,500	0,031
515,600	0,031
515,700	0,031
515,800	0,031
515,900	0,031
516,000	0,031
516,100	0,031
516,200	0,031
516,300	0,031
516,400	0,031
516,500	0,031
516,600	0,031
516,700	0,031
516,800	0,031
516,900	0,031
517,000	0,031
517,100	0,031
517,200	0,031
517,300	0,031
517,400	0,031
517,500	0,031
517,600	0,031
517,700	0,031
517,800	0,031
517,900	0,031
518,000	0,031
518,100	0,031
518,200	0,031
518,300	0,031
518,400	0,031
518,500	0,031
518,600	0,031
518,700	0,031
518,800	0,031
518,900	0,031
519,000	0,031
519,100	0,031
519,200	0,031
519,300	0,031
519,400	0,031
519,500	0,031
519,600	0,031
519,700	0,031
519,800	0,031
519,900	0,031
520,000	0,026
520,100	0,031
520,200	0,031
520,300	0,031
520,400	0,031
520,500	0,031
520,600	0,031
520,700	0,031
520,800	0,031
520,900	0,031
521,000	0,031
521,100	0,031
521,200	0,031
521,300	0,031
521,400	0,031
521,500	0,031
521,600	0,031
521,700	0,031
521,800	0,031
521,900	0,031
522,000	0,031
522,100	0,031
522,200	0,026
522,300	0,031
522,400	0,031
522,500	0,031
522,600	0,031
522,700	0,031
522,800	0,031
522,900	0,026
523,000	0,031
523,100	0,031
523,200	0,031
523,300	0,026
523,400	0,031
523,500	0,031
523,600	0,031
523,700	0,031
523,800	0,031
523,900	0,031
524,000	0,026
524,100	0,031
524,200	0,031
524,300	0,031
524,400	0,031
524,500	0,031
524,600	0,031
524,700	0,031
524,800	0,031
524,900	0,031
525,000	0,036
525,100	0,031
525,200	0,031
525,300	0,031
525,400	0,031
525,500	0,026
525,600	0,031
525,700	0,031
525,800	0,031
525,900	0,031
526,000	0,031
526,100	0,031
526,200	0,031
526,300	0,031
526,400	0,031
526,500	0,031
526,600	0,031
526,700	0,031
526,800	0,031
526,900	0,031
527,000	0,031
527,100	0,026
527,200	0,031
527,300	0,031
527,400	0,031
527,500	0,031
527,600	0,031
527,700	0,026
527,800	0,031
527,900	0,031
528,000	0,031
528,100	0,031
528,200	0,031
528,300	0,031
528,400	0,031
528,500	0,031
528,600	0,031
528,700	0,031
528,800	0,031
528,900	0,031
529,000	0,031
529,100	0,031
529,200	0,031
529,300	0,031
529,400	0,031
529,500	0,031
529,600	0,031
529,700	0,031
529,800	0,031
529,900	0,031
530,000	0,031
530,100	0,031
530,200	0,031
530,300	0,026
530,400	0,031
530,500	0,031
530,600	0,031
530,700	0,031
530,800	0,031
530,900	0,031
531,000	0,031
531,100	0,031
531,200	0,031
531,300	0,031
531,400	0,031
531,500	0,031
531,600	0,031
531,700	0,031
531,800	0,031
531,900	0,031
532,000	0,031
532,100	0,031
532,200	0,031
532,300	0,031
532,400	0,031
532,500	0,031
532,600	0,031
532,700	0,031
532,800	0,031
532,900	0,031
533,000	0,031
533,100	0,031
533,200	0,031
533,300	0,031
533,400	0,031
533,500	0,031
533,600	0,026
533,700	0,031
533,800	0,031
533,900	0,031
534,000	0,026
534,100	0,031
534,200	0,031
534,300	0,031
534,400	0,031
534,500	0,031
534,600	0,031
534,700	0,036
534,800	0,031
534,900	0,031
535,000	0,031
535,100	0,031
535,200	0,031
535,300	0,031
535,400	0,031
535,500	0,026
535,600	0,031
535,700	0,031
535,800	0,031
535,900	0,031
536,000	0,031
536,100	0,031
536,200	0,031
536,300	0,031
536,400	0,031
536,500	0,031
536,600	0,031
536,700	0,031
536,800	0,031
536,900	0,031
537,000	0,031
537,100	0,031
537,200	0,031
537,300	0,031
537,400	0,031
537,500	0,031
537,600	0,031
537,700	0,031
537,800	0,031
537,900	0,031
538,000	0,031
538,100	0,031
538,200	0,031
538,300	0,031
538,400	0,031
538,500	0,026
538,600	0,031
538,700	0,031
538,800	0,031
538,900	0,026
539,000	0,031
539,100	0,026
539,200	0,031
539,300	0,031
539,400	0,026
539,500	0,031
539,600	0,031
539,700	0,031
539,800	0,031
539,900	0,031
540,000	0,031
540,100	0,031
540,200	0,031
540,300	0,031
540,400	0,031
540,500	0,031
540,600	0,031
540,700	0,031
540,800	0,031
540,900	0,031
541,000	0,031
541,100	0,031
541,200	0,031
541,300	0,031
541,400	0,026
541,500	0,031
541,600	0,031
541,700	0,031
541,800	0,031
541,900	0,031
542,000	0,031
542,100	0,031
542,200	0,031
542,300	0,031
542,400	0,031
542,500	0,031
542,600	0,026
542,700	0,031
542,800	0,031
542,900	0,031
543,000	0,031
543,100	0,031
543,200	0,031
543,300	0,031
543,400	0,031
543,500	0,031
543,600	0,031
543,700	0,031
543,800	0,031
543,900	0,026
544,000	0,031
544,100	0,031
544,200	0,031
544,300	0,031
544,400	0,031
544,500	0,031
544,600	0,026
544,700	0,031
544,800	0,031
544,900	0,031
545,000	0,031
545,100	0,031
545,200	0,031
545,300	0,031
545,400	0,031
545,500	0,026
545,600	0,031
545,700	0,031
545,800	0,031
545,900	0,031
546,000	0,031
546,100	0,031
546,200	0,031
546,300	0,031
546,400	0,031
546,500	0,031
546,600	0,031
546,700	0,031
546,800	0,031
546,900	0,026
547,000	0,031
547,100	0,031
547,200	0,031
547,300	0,031
547,400	0,031
547,500	0,031
547,600	0,031
547,700	0,031
547,800	0,031
547,900	0,031
548,000	0,031
548,100	0,031
548,200	0,031
548,300	0,031
548,400	0,031
548,500	0,026
548,600	0,026
548,700	0,031
548,800	0,031
548,900	0,026
549,000	0,031
549,100	0,031
549,200	0,031
549,300	0,031
549,400	0,031
549,500	0,031
549,600	0,031
549,700	0,031
549,800	0,031
549,900	0,031
550,000	0,031
550,100	0,031
550,200	0,031
550,300	0,031
550,400	0,031
550,500	0,031
550,600	0,031
550,700	0,031
550,800	0,031
550,900	0,031
551,000	0,031
551,100	0,031
551,200	0,031
551,300	0,026
551,400	0,031
551,500	0,031
551,600	0,031
551,700	0,031
551,800	0,031
551,900	0,031
552,000	0,031
552,100	0,026
552,200	0,031
552,300	0,031
552,400	0,026
552,500	0,031
552,600	0,031
552,700	0,031
552,800	0,031
552,900	0,026
553,000	0,031
553,100	0,031
553,200	0,031
553,300	0,031
553,400	0,026
553,500	0,031
553,600	0,031
553,700	0,031
553,800	0,031
553,900	0,031
554,000	0,031
554,100	0,031
554,200	0,031
554,300	0,031
554,400	0,031
554,500	0,026
554,600	0,031
554,700	0,031
554,800	0,031
554,900	0,026
555,000	0,026
555,100	0,031
555,200	0,031
555,300	0,031
555,400	0,031
555,500	0,031
555,600	0,031
555,700	0,031
555,800	0,031
555,900	0,031
556,000	0,031
556,100	0,031
556,200	0,031
556,300	0,026
556,400	0,031
556,500	0,031
556,600	0,031
556,700	0,026
556,800	0,031
556,900	0,031
557,000	0,031
557,100	0,031
557,200	0,031
557,300	0,031
557,400	0,031
557,500	0,031
557,600	0,031
557,700	0,031
557,800	0,031
557,900	0,031
558,000	0,031
558,100	0,031
558,200	0,031
558,300	0,031
558,400	0,026
558,500	0,031
558,600	0,031
558,700	0,031
558,800	0,026
558,900	0,031
559,000	0,026
559,100	0,031
559,200	0,026
559,300	0,026
559,400	0,031
559,500	0,031
559,600	0,031
559,700	0,031
559,800	0,031
559,900	0,031
560,000	0,031
560,100	0,031
560,200	0,031
560,300	0,031
560,400	0,026
560,500	0,031
560,600	0,031
560,700	0,031
560,800	0,031
560,900	0,031
561,000	0,031
561,100	0,031
561,200	0,031
561,300	0,031
561,400	0,031
561,500	0,031
561,600	0,031
561,700	0,026
561,800	0,031
561,900	0,031
562,000	0,031
562,100	0,031
562,200	0,031
562,300	0,031
562,400	0,031
562,500	0,031
562,600	0,031
562,700	0,031
562,800	0,031
562,900	0,026
563,000	0,031
563,100	0,031
563,200	0,031
563,300	0,031
563,400	0,031
563,500	0,031
563,600	0,031
563,700	0,031
563,800	0,031
563,900	0,031
564,000	0,031
564,100	0,031
564,200	0,031
564,300	0,031
564,400	0,031
564,500	0,031
564,600	0,031
564,700	0,031
564,800	0,031
564,900	0,031
565,000	0,031
565,100	0,031
565,200	0,031
565,300	0,026
565,400	0,031
565,500	0,031
565,600	0,031
565,700	0,031
565,800	0,031
565,900	0,031
566,000	0,031
566,100	0,031
566,200	0,031
566,300	0,031
566,400	0,031
566,500	0,031
566,600	0,031
566,700	0,031
566,800	0,031
566,900	0,031
567,000	0,031
567,100	0,031
567,200	0,031
567,300	0,026
567,400	0,031
567,500	0,031
567,600	0,031
567,700	0,031
567,800	0,031
567,900	0,031
568,000	0,031
568,100	0,031
568,200	0,026
568,300	0,036
568,400	0,031
568,500	0,031
568,600	0,031
568,700	0,031
568,800	0,031
568,900	0,031
569,000	0,026
569,100	0,031
569,200	0,031
569,300	0,031
569,400	0,031
569,500	0,031
569,600	0,026
569,700	0,031
569,800	0,031
569,900	0,031
570,000	0,031
570,100	0,031
570,200	0,026
570,300	0,031
570,400	0,031
570,500	0,031
570,600	0,031
570,700	0,031
570,800	0,031
570,900	0,031
571,000	0,031
571,100	0,031
571,200	0,031
571,300	0,031
571,400	0,031
571,500	0,031
571,600	0,031
571,700	0,031
571,800	0,026
571,900	0,031
572,000	0,026
572,100	0,031
572,200	0,031
572,300	0,031
572,400	0,031
572,500	0,031
572,600	0,031
572,700	0,031
572,800	0,031
572,900	0,031
573,000	0,031
573,100	0,031
573,200	0,031
573,300	0,031
573,400	0,031
573,500	0,031
573,600	0,031
573,700	0,031
573,800	0,026
573,900	0,031
574,000	0,026
574,100	0,031
574,200	0,031
574,300	0,031
574,400	0,026
574,500	0,031
574,600	0,026
574,700	0,031
574,800	0,031
574,900	0,031
575,000	0,031
575,100	0,031
575,200	0,031
575,300	0,031
575,400	0,031
575,500	0,031
575,600	0,031
575,700	0,031
575,800	0,026
575,900	0,031
576,000	0,026
576,100	0,026
576,200	0,031
576,300	0,031
576,400	0,031
576,500	0,031
576,600	0,031
576,700	0,026
576,800	0,026
576,900	0,031
577,000	0,031
577,100	0,031
577,200	0,026
577,300	0,031
577,400	0,031
577,500	0,031
577,600	0,026
577,700	0,031
577,800	0,026
577,900	0,026
578,000	0,031
578,100	0,026
578,200	0,031
578,300	0,026
578,400	0,031
578,500	0,031
578,600	0,031
578,700	0,026
578,800	0,031
578,900	0,031
579,000	0,026
579,100	0,031
579,200	0,031
579,300	0,031
579,400	0,031
579,500	0,031
579,600	0,026
579,700	0,031
579,800	0,031
579,900	0,031
580,000	0,031
580,100	0,031
580,200	0,026
580,300	0,031
580,400	0,031
580,500	0,031
580,600	0,031
580,700	0,026
580,800	0,031
580,900	0,031
581,000	0,026
581,100	0,031
581,200	0,031
581,300	0,026
581,400	0,031
581,500	0,031
581,600	0,026
581,700	0,031
581,800	0,031
581,900	0,031
582,000	0,031
582,100	0,031
582,200	0,026
582,300	0,031
582,400	0,031
582,500	0,031
582,600	0,026
582,700	0,031
582,800	0,026
582,900	0,031
583,000	0,031
583,100	0,026
583,200	0,026
583,300	0,031
583,400	0,031
583,500	0,031
583,600	0,031
583,700	0,031
583,800	0,026
583,900	0,026
584,000	0,031
584,100	0,026
584,200	0,031
584,300	0,031
584,400	0,031
584,500	0,031
584,600	0,031
584,700	0,031
584,800	0,031
584,900	0,026
585,000	0,031
585,100	0,031
585,200	0,031
585,300	0,031
585,400	0,031
585,500	0,026
585,600	0,031
585,700	0,031
585,800	0,031
585,900	0,031
586,000	0,031
586,100	0,031
586,200	0,031
586,300	0,031
586,400	0,026
586,500	0,031
586,600	0,031
586,700	0,031
586,800	0,031
586,900	0,031
587,000	0,031
587,100	0,031
587,200	0,031
587,300	0,031
587,400	0,026
587,500	0,031
587,600	0,026
587,700	0,031
587,800	0,031
587,900	0,031
588,000	0,031
588,100	0,031
588,200	0,031
588,300	0,031
588,400	0,031
588,500	0,031
588,600	0,031
588,700	0,026
588,800	0,031
588,900	0,031
589,000	0,031
589,100	0,026
589,200	0,031
589,300	0,031
589,400	0,031
589,500	0,026
589,600	0,031
589,700	0,031
589,800	0,031
589,900	0,031
590,000	0,031
590,100	0,031
590,200	0,031
590,300	0,031
590,400	0,031
590,500	0,031
590,600	0,031
590,700	0,031
590,800	0,031
590,900	0,031
591,000	0,031
591,100	0,031
591,200	0,031
591,300	0,031
591,400	0,026
591,500	0,031
591,600	0,031
591,700	0,031
591,800	0,031
591,900	0,031
592,000	0,031
592,100	0,031
592,200	0,031
592,300	0,026
592,400	0,031
592,500	0,031
592,600	0,026
592,700	0,026
592,800	0,031
592,900	0,031
593,000	0,031
593,100	0,031
593,200	0,031
593,300	0,031
593,400	0,026
593,500	0,031
593,600	0,026
593,700	0,031
593,800	0,031
593,900	0,031
594,000	0,026
594,100	0,031
594,200	0,031
594,300	0,031
594,400	0,026
594,500	0,026
594,600	0,031
594,700	0,031
594,800	0,031
594,900	0,031
595,000	0,031
595,100	0,026
595,200	0,026
595,300	0,031
595,400	0,026
595,500	0,031
595,600	0,031
595,700	0,026
595,800	0,031
595,900	0,026
596,000	0,031
596,100	0,026
596,200	0,026
596,300	0,026
596,400	0,031
596,500	0,031
596,600	0,031
596,700	0,026
596,800	0,031
596,900	0,031
597,000	0,026
597,100	0,031
597,200	0,026
597,300	0,026
597,400	0,031
597,500	0,031
597,600	0,031
597,700	0,031
597,800	0,031
597,900	0,031
598,000	0,031
598,100	0,031
598,200	0,026
598,300	0,031
598,400	0,031
598,500	0,031
598,600	0,026
598,700	0,031
598,800	0,031
598,900	0,031
599,000	0,031
599,100	0,026
599,200	0,026
599,300	0,026
599,400	0,031
599,500	0,026
599,600	0,031
599,700	0,026
599,800	0,026
599,900	0,026
600,000	0,031
600,100	0,031
600,200	0,031
600,300	0,031
600,400	0,026
600,500	0,031
600,600	0,031
600,700	0,031
600,800	0,031
600,900	0,031
601,000	0,031
601,100	0,031
601,200	0,031
601,300	0,031
601,400	0,031
601,500	0,031
601,600	0,026
601,700	0,031
601,800	0,031
601,900	0,026
602,000	0,026
602,100	0,026
602,200	0,031
602,300	0,031
602,400	0,026
602,500	0,031
602,600	0,031
602,700	0,031
602,800	0,031
602,900	0,031
603,000	0,031
603,100	0,031
603,200	0,031
603,300	0,031
603,400	0,031
603,500	0,031
603,600	0,031
603,700	0,026
603,800	0,026
603,900	0,031
604,000	0,031
604,100	0,031
604,200	0,031
604,300	0,026
604,400	0,031
604,500	0,031
604,600	0,031
604,700	0,031
604,800	0,026
604,900	0,031
605,000	0,031
605,100	0,031
605,200	0,031
605,300	0,031
605,400	0,031
605,500	0,026
605,600	0,031
605,700	0,026
605,800	0,031
605,900	0,031
606,000	0,031
606,100	0,026
606,200	0,026
606,300	0,031
606,400	0,026
606,500	0,026
606,600	0,026
606,700	0,031
606,800	0,031
606,900	0,026
607,000	0,031
607,100	0,031
607,200	0,031
607,300	0,026
607,400	0,031
607,500	0,026
607,600	0,031
607,700	0,031
607,800	0,026
607,900	0,031
608,000	0,031
608,100	0,031
608,200	0,031
608,300	0,031
608,400	0,031
608,500	0,031
608,600	0,026
608,700	0,031
608,800	0,031
608,900	0,031
609,000	0,031
609,100	0,026
609,200	0,031
609,300	0,026
609,400	0,031
609,500	0,031
609,600	0,031
609,700	0,031
609,800	0,031
609,900	0,031
610,000	0,031
610,100	0,031
610,200	0,026
610,300	0,026
610,400	0,026
610,500	0,031
610,600	0,031
610,700	0,026
610,800	0,031
610,900	0,026
611,000	0,031
611,100	0,031
611,200	0,031
611,300	0,026
611,400	0,031
611,500	0,026
611,600	0,031
611,700	0,026
611,800	0,031
611,900	0,031
612,000	0,031
612,100	0,026
612,200	0,026
612,300	0,031
612,400	0,031
612,500	0,031
612,600	0,031
612,700	0,031
612,800	0,031
612,900	0,026
613,000	0,031
613,100	0,031
613,200	0,026
613,300	0,026
613,400	0,031
613,500	0,026
613,600	0,031
613,700	0,026
613,800	0,026
613,900	0,026
614,000	0,026
614,100	0,026
614,200	0,031
614,300	0,026
614,400	0,031
614,500	0,026
614,600	0,031
614,700	0,031
614,800	0,031
614,900	0,031
615,000	0,031
615,100	0,031
615,200	0,031
615,300	0,026
615,400	0,031
615,500	0,026
615,600	0,031
615,700	0,026
615,800	0,031
615,900	0,031
616,000	0,031
616,100	0,031
616,200	0,031
616,300	0,026
616,400	0,026
616,500	0,031
616,600	0,026
616,700	0,026
616,800	0,031
616,900	0,031
617,000	0,026
617,100	0,031
617,200	0,031
617,300	0,031
617,400	0,031
617,500	0,031
617,600	0,026
617,700	0,031
617,800	0,031
617,900	0,031
618,000	0,026
618,100	0,031
618,200	0,031
618,300	0,026
618,400	0,026
618,500	0,031
618,600	0,026
618,700	0,026
618,800	0,026
618,900	0,031
619,000	0,031
619,100	0,031
619,200	0,031
619,300	0,031
619,400	0,026
619,500	0,026
619,600	0,031
619,700	0,031
619,800	0,031
619,900	0,031
620,000	0,026
620,100	0,026
620,200	0,031
620,300	0,026
620,400	0,031
620,500	0,031
620,600	0,031
620,700	0,031
620,800	0,026
620,900	0,026
621,000	0,031
621,100	0,031
621,200	0,031
621,300	0,031
621,400	0,026
621,500	0,031
621,600	0,031
621,700	0,031
621,800	0,031
621,900	0,026
622,000	0,026
622,100	0,026
622,200	0,026
622,300	0,026
622,400	0,031
622,500	0,026
622,600	0,026
622,700	0,031
622,800	0,026
622,900	0,031
623,000	0,031
623,100	0,026
623,200	0,026
623,300	0,031
623,400	0,026
623,500	0,026
623,600	0,031
623,700	0,026
623,800	0,031
623,900	0,026
624,000	0,031
624,100	0,031
624,200	0,026
624,300	0,031
624,400	0,031
624,500	0,031
624,600	0,031
624,700	0,031
624,800	0,026
624,900	0,026
625,000	0,026
625,100	0,031
625,200	0,031
625,300	0,031
625,400	0,031
625,500	0,026
