Voltage, Run #1
Time ( s )	Voltage ( V )
0,000	0,026
0,100	0,026
0,200	0,026
0,300	0,031
0,400	0,026
0,500	0,026
0,600	0,026
0,700	0,026
0,800	0,026
0,900	0,026
1,000	0,031
1,100	0,026
1,200	0,026
1,300	0,026
1,400	0,026
1,500	0,031
1,600	0,026
1,700	0,026
1,800	0,026
1,900	0,026
2,000	0,026
2,100	0,026
2,200	0,026
2,300	0,031
2,400	0,026
2,500	0,026
2,600	0,026
2,700	0,026
2,800	0,026
2,900	0,026
3,000	0,026
3,100	0,026
3,200	0,026
3,300	0,026
3,400	0,026
3,500	0,026
3,600	0,031
3,700	0,026
3,800	0,026
3,900	0,026
4,000	0,026
4,100	0,026
4,200	0,026
4,300	0,031
4,400	0,026
4,500	0,026
4,600	0,026
4,700	0,026
4,800	0,026
4,900	0,026
5,000	0,026
5,100	0,026
5,200	0,026
5,300	0,026
5,400	0,026
5,500	0,026
5,600	0,026
5,700	0,026
5,800	0,026
5,900	0,031
6,000	0,026
6,100	0,026
6,200	0,026
6,300	0,026
6,400	0,026
6,500	0,026
6,600	0,031
6,700	0,026
6,800	0,026
6,900	0,026
7,000	0,026
7,100	0,026
7,200	0,026
7,300	0,026
7,400	0,026
7,500	0,026
7,600	0,026
7,700	0,026
7,800	0,026
7,900	0,026
8,000	0,026
8,100	0,026
8,200	0,026
8,300	0,031
8,400	0,026
8,500	0,026
8,600	0,026
8,700	0,026
8,800	0,026
8,900	0,026
9,000	0,026
9,100	0,026
9,200	0,026
9,300	0,026
9,400	0,026
9,500	0,026
9,600	0,031
9,700	0,031
9,800	0,026
9,900	0,026
10,000	0,026
10,100	0,026
10,200	0,031
10,300	0,026
10,400	0,026
10,500	0,026
10,600	0,026
10,700	0,026
10,800	0,026
10,900	0,026
11,000	0,031
11,100	0,026
11,200	0,026
11,300	0,026
11,400	0,026
11,500	0,026
11,600	0,026
11,700	0,026
11,800	0,026
11,900	0,031
12,000	0,026
12,100	0,031
12,200	0,031
12,300	0,026
12,400	0,026
12,500	0,026
12,600	0,026
12,700	0,026
12,800	0,026
12,900	0,026
13,000	0,031
13,100	0,026
13,200	0,026
13,300	3,290
13,400	3,296
13,500	3,306
13,600	3,311
13,700	3,316
13,800	3,316
13,900	3,326
14,000	3,332
14,100	3,332
14,200	3,337
14,300	3,337
14,400	3,342
14,500	3,342
14,600	3,347
14,700	3,347
14,800	3,347
14,900	3,352
15,000	3,352
15,100	3,352
15,200	3,352
15,300	3,357
15,400	3,357
15,500	3,357
15,600	3,363
15,700	3,357
15,800	3,363
15,900	3,363
16,000	3,363
16,100	3,368
16,200	3,363
16,300	3,368
16,400	3,368
16,500	3,368
16,600	3,368
16,700	3,368
16,800	3,368
16,900	3,368
17,000	3,373
17,100	3,368
17,200	3,368
17,300	3,373
17,400	3,373
17,500	3,373
17,600	3,373
17,700	3,378
17,800	3,373
17,900	3,373
18,000	3,373
18,100	3,378
18,200	3,373
18,300	3,378
18,400	3,373
18,500	3,378
18,600	3,378
18,700	3,378
18,800	3,378
18,900	3,378
19,000	3,383
19,100	3,378
19,200	3,383
19,300	3,378
19,400	3,383
19,500	3,378
19,600	3,383
19,700	3,383
19,800	3,383
19,900	3,383
20,000	3,383
20,100	3,383
20,200	3,383
20,300	3,383
20,400	3,383
20,500	3,383
20,600	3,383
20,700	3,388
20,800	3,388
20,900	3,388
21,000	3,388
21,100	3,388
21,200	3,388
21,300	3,388
21,400	3,388
21,500	3,388
21,600	3,394
21,700	3,394
21,800	3,388
21,900	3,394
22,000	3,388
22,100	3,394
22,200	3,394
22,300	3,394
22,400	3,394
22,500	3,394
22,600	3,394
22,700	3,394
22,800	3,394
22,900	3,394
23,000	3,399
23,100	3,394
23,200	3,394
23,300	3,394
23,400	3,399
23,500	3,394
23,600	3,399
23,700	3,399
23,800	3,399
23,900	3,399
24,000	3,399
24,100	3,399
24,200	3,399
24,300	3,399
24,400	3,399
24,500	3,404
24,600	3,404
24,700	3,404
24,800	3,399
24,900	3,399
25,000	3,399
25,100	3,404
25,200	3,409
25,300	3,404
25,400	3,404
25,500	3,404
25,600	3,404
25,700	3,404
25,800	3,409
25,900	3,404
26,000	3,409
26,100	3,404
26,200	3,409
26,300	3,409
26,400	3,409
26,500	3,409
26,600	3,409
26,700	3,409
26,800	3,409
26,900	3,414
27,000	3,409
27,100	3,409
27,200	3,409
27,300	3,414
27,400	3,409
27,500	3,409
27,600	3,414
27,700	3,409
27,800	3,414
27,900	3,414
28,000	3,414
28,100	3,414
28,200	3,414
28,300	3,414
28,400	3,414
28,500	3,419
28,600	3,414
28,700	3,414
28,800	3,414
28,900	3,414
29,000	3,414
29,100	3,419
29,200	3,419
29,300	3,419
29,400	3,419
29,500	3,419
29,600	3,419
29,700	3,419
29,800	3,419
29,900	3,419
30,000	3,419
30,100	3,419
30,200	3,419
30,300	3,424
30,400	3,419
30,500	3,419
30,600	3,424
30,700	3,424
30,800	3,424
30,900	3,419
31,000	3,424
31,100	3,424
31,200	3,424
31,300	3,424
31,400	3,424
31,500	3,424
31,600	3,424
31,700	3,424
31,800	3,424
31,900	3,430
32,000	3,430
32,100	3,430
32,200	3,430
32,300	3,430
32,400	3,430
32,500	3,424
32,600	3,430
32,700	3,430
32,800	3,430
32,900	3,430
33,000	3,430
33,100	3,430
33,200	3,430
33,300	3,430
33,400	3,430
33,500	3,430
33,600	3,430
33,700	3,430
33,800	3,430
33,900	3,435
34,000	3,430
34,100	3,430
34,200	3,435
34,300	3,435
34,400	3,430
34,500	3,440
34,600	3,435
34,700	3,435
34,800	3,435
34,900	3,435
35,000	3,435
35,100	3,435
35,200	3,435
35,300	3,440
35,400	3,435
35,500	3,435
35,600	3,435
35,700	3,435
35,800	3,435
35,900	3,435
36,000	3,440
36,100	3,435
36,200	3,440
36,300	3,440
36,400	3,440
36,500	3,440
36,600	3,440
36,700	3,440
36,800	3,440
36,900	3,440
37,000	3,440
37,100	3,440
37,200	3,440
37,300	3,440
37,400	3,445
37,500	3,440
37,600	3,445
37,700	3,445
37,800	3,445
37,900	3,440
38,000	3,445
38,100	3,445
38,200	3,445
38,300	3,445
38,400	3,445
38,500	3,445
38,600	3,445
38,700	3,445
38,800	3,445
38,900	3,445
39,000	3,445
39,100	3,445
39,200	3,445
39,300	3,450
39,400	3,450
39,500	3,445
39,600	3,445
39,700	3,450
39,800	3,450
39,900	3,450
40,000	3,450
40,100	3,450
40,200	3,450
40,300	3,450
40,400	3,445
40,500	3,450
40,600	3,450
40,700	3,450
40,800	3,450
40,900	3,455
41,000	3,450
41,100	3,450
41,200	3,450
41,300	3,455
41,400	3,455
41,500	3,450
41,600	3,455
41,700	3,450
41,800	3,455
41,900	3,455
42,000	3,450
42,100	3,455
42,200	3,455
42,300	3,455
42,400	3,455
42,500	3,455
42,600	3,450
42,700	3,455
42,800	3,455
42,900	3,455
43,000	3,461
43,100	3,455
43,200	3,461
43,300	3,461
43,400	3,455
43,500	3,455
43,600	3,461
43,700	3,461
43,800	3,455
43,900	3,455
44,000	3,455
44,100	3,461
44,200	3,461
44,300	3,461
44,400	3,461
44,500	3,461
44,600	3,461
44,700	3,461
44,800	3,461
44,900	3,461
45,000	3,461
45,100	3,461
45,200	3,461
45,300	3,461
45,400	3,461
45,500	3,461
45,600	3,461
45,700	3,461
45,800	3,461
45,900	3,461
46,000	3,461
46,100	3,461
46,200	3,461
46,300	3,466
46,400	3,466
46,500	3,461
46,600	3,466
46,700	3,461
46,800	3,461
46,900	3,461
47,000	3,466
47,100	3,466
47,200	3,466
47,300	3,466
47,400	3,466
47,500	3,466
47,600	3,471
47,700	3,466
47,800	3,466
47,900	3,466
48,000	3,471
48,100	3,466
48,200	3,471
48,300	3,471
48,400	3,466
48,500	3,471
48,600	3,471
48,700	3,466
48,800	3,471
48,900	3,471
49,000	3,471
49,100	3,466
49,200	3,471
49,300	3,471
49,400	3,471
49,500	3,466
49,600	3,471
49,700	3,471
49,800	3,471
49,900	3,471
50,000	3,476
50,100	3,466
50,200	3,471
50,300	3,471
50,400	3,471
50,500	3,471
50,600	3,471
50,700	3,471
50,800	3,471
50,900	3,476
51,000	3,476
51,100	3,476
51,200	3,471
51,300	3,471
51,400	3,476
51,500	3,476
51,600	3,476
51,700	3,476
51,800	3,476
51,900	3,471
52,000	3,476
52,100	3,476
52,200	3,476
52,300	3,476
52,400	3,476
52,500	3,476
52,600	3,476
52,700	3,476
52,800	3,476
52,900	3,476
53,000	3,476
53,100	3,481
53,200	3,476
53,300	3,476
53,400	3,476
53,500	3,481
53,600	3,481
53,700	3,481
53,800	3,476
53,900	3,481
54,000	3,481
54,100	3,481
54,200	3,481
54,300	3,481
54,400	3,481
54,500	3,481
54,600	3,481
54,700	3,481
54,800	3,481
54,900	3,481
55,000	3,481
55,100	3,481
55,200	3,481
55,300	3,481
55,400	3,481
55,500	3,481
55,600	3,481
55,700	3,481
55,800	3,481
55,900	3,481
56,000	3,481
56,100	3,481
56,200	3,481
56,300	3,486
56,400	3,481
56,500	3,486
56,600	3,481
56,700	3,486
56,800	3,486
56,900	3,486
57,000	3,486
57,100	3,486
57,200	3,481
57,300	3,481
57,400	3,481
57,500	3,486
57,600	3,486
57,700	3,486
57,800	3,486
57,900	3,486
58,000	3,486
58,100	3,486
58,200	3,486
58,300	3,481
58,400	3,486
58,500	3,486
58,600	3,486
58,700	3,486
58,800	3,486
58,900	3,491
59,000	3,486
59,100	3,486
59,200	3,486
59,300	3,486
59,400	3,486
59,500	3,486
59,600	3,486
59,700	3,486
59,800	3,491
59,900	3,486
60,000	3,491
60,100	3,491
60,200	3,486
60,300	3,491
60,400	3,491
60,500	3,486
60,600	3,491
60,700	3,491
60,800	3,491
60,900	3,491
61,000	3,491
61,100	3,491
61,200	3,491
61,300	3,491
61,400	3,491
61,500	3,491
61,600	3,491
61,700	3,491
61,800	3,491
61,900	3,491
62,000	3,491
62,100	3,491
62,200	3,491
62,300	3,491
62,400	3,491
62,500	3,491
62,600	3,491
62,700	3,491
62,800	3,491
62,900	3,491
63,000	3,497
63,100	3,491
63,200	3,491
63,300	3,497
63,400	3,497
63,500	3,491
63,600	3,497
63,700	3,491
63,800	3,497
63,900	3,497
64,000	3,497
64,100	3,497
64,200	3,497
64,300	3,497
64,400	3,497
64,500	3,497
64,600	3,497
64,700	3,497
64,800	3,497
64,900	3,497
65,000	3,497
65,100	3,497
65,200	3,497
65,300	3,497
65,400	3,497
65,500	3,497
65,600	3,497
65,700	3,497
65,800	3,497
65,900	3,497
66,000	3,497
66,100	3,502
66,200	3,497
66,300	3,497
66,400	3,497
66,500	3,497
66,600	3,497
66,700	3,497
66,800	3,497
66,900	3,497
67,000	3,502
67,100	3,497
67,200	3,502
67,300	3,502
67,400	3,497
67,500	3,497
67,600	3,502
67,700	3,502
67,800	3,502
67,900	3,497
68,000	3,502
68,100	3,502
68,200	3,502
68,300	3,502
68,400	3,502
68,500	3,502
68,600	3,502
68,700	3,502
68,800	3,502
68,900	3,502
69,000	3,502
69,100	3,502
69,200	3,502
69,300	3,502
69,400	3,502
69,500	3,502
69,600	3,502
69,700	3,502
69,800	3,502
69,900	3,502
70,000	3,502
70,100	3,502
70,200	3,507
70,300	3,502
70,400	3,502
70,500	3,507
70,600	3,502
70,700	3,507
70,800	3,502
70,900	3,507
71,000	3,502
71,100	3,502
71,200	3,507
71,300	3,507
71,400	3,507
71,500	3,507
71,600	3,507
71,700	3,507
71,800	3,507
71,900	3,502
72,000	3,502
72,100	3,507
72,200	3,507
72,300	3,507
72,400	3,507
72,500	3,507
72,600	3,507
72,700	3,507
72,800	3,507
72,900	3,507
73,000	3,507
73,100	3,507
73,200	3,507
73,300	3,507
73,400	3,507
73,500	3,507
73,600	3,507
73,700	3,507
73,800	3,507
73,900	3,512
74,000	3,507
74,100	3,507
74,200	3,507
74,300	3,507
74,400	3,507
74,500	3,507
74,600	3,507
74,700	3,512
74,800	3,507
74,900	3,507
75,000	3,507
75,100	3,507
75,200	3,512
75,300	3,507
75,400	3,512
75,500	3,507
75,600	3,512
75,700	3,512
75,800	3,512
75,900	3,512
76,000	3,512
76,100	3,512
76,200	3,507
76,300	3,507
76,400	3,507
76,500	3,512
76,600	3,512
76,700	3,512
76,800	3,512
76,900	3,512
77,000	3,512
77,100	3,512
77,200	3,512
77,300	3,512
77,400	3,512
77,500	3,507
77,600	3,512
77,700	3,512
77,800	3,512
77,900	3,512
78,000	3,512
78,100	3,512
78,200	3,512
78,300	3,512
78,400	3,512
78,500	3,507
78,600	3,512
78,700	3,512
78,800	3,512
78,900	3,512
79,000	3,512
79,100	3,512
79,200	3,512
79,300	3,512
79,400	3,512
79,500	3,512
79,600	3,517
79,700	3,512
79,800	3,512
79,900	3,512
80,000	3,512
80,100	3,517
80,200	3,512
80,300	3,512
80,400	3,512
80,500	3,512
80,600	3,517
80,700	3,512
80,800	3,512
80,900	3,512
81,000	3,517
81,100	3,517
81,200	3,517
81,300	3,512
81,400	3,517
81,500	3,512
81,600	3,512
81,700	3,517
81,800	3,517
81,900	3,517
82,000	3,512
82,100	3,517
82,200	3,517
82,300	3,512
82,400	3,517
82,500	3,517
82,600	3,517
82,700	3,517
82,800	3,517
82,900	3,517
83,000	3,517
83,100	3,517
83,200	3,517
83,300	3,512
83,400	3,517
83,500	3,517
83,600	3,517
83,700	3,517
83,800	3,517
83,900	3,517
84,000	3,517
84,100	3,517
84,200	3,517
84,300	3,517
84,400	3,517
84,500	3,517
84,600	3,517
84,700	3,517
84,800	3,517
84,900	3,522
85,000	3,517
85,100	3,517
85,200	3,517
85,300	3,522
85,400	3,517
85,500	3,517
85,600	3,517
85,700	3,517
85,800	3,522
85,900	3,517
86,000	3,517
86,100	3,517
86,200	3,517
86,300	3,517
86,400	3,517
86,500	3,522
86,600	3,517
86,700	3,517
86,800	3,517
86,900	3,522
87,000	3,517
87,100	3,522
87,200	3,522
87,300	3,522
87,400	3,517
87,500	3,522
87,600	3,522
87,700	3,522
87,800	3,517
87,900	3,522
88,000	3,517
88,100	3,522
88,200	3,522
88,300	3,522
88,400	3,522
88,500	3,517
88,600	3,522
88,700	3,522
88,800	3,517
88,900	3,522
89,000	3,522
89,100	3,522
89,200	3,522
89,300	3,522
89,400	3,517
89,500	3,522
89,600	3,522
89,700	3,522
89,800	3,522
89,900	3,522
90,000	3,522
90,100	3,522
90,200	3,522
90,300	3,522
90,400	3,522
90,500	3,522
90,600	3,522
90,700	3,522
90,800	3,522
90,900	3,522
91,000	3,522
91,100	3,522
91,200	3,522
91,300	3,528
91,400	3,522
91,500	3,528
91,600	3,522
91,700	3,522
91,800	3,522
91,900	3,522
92,000	3,528
92,100	3,522
92,200	3,522
92,300	3,528
92,400	3,522
92,500	3,522
92,600	3,522
92,700	3,522
92,800	3,528
92,900	3,522
93,000	3,522
93,100	3,522
93,200	3,528
93,300	3,528
93,400	3,522
93,500	3,522
93,600	3,522
93,700	3,528
93,800	3,522
93,900	3,522
94,000	3,522
94,100	3,528
94,200	3,522
94,300	3,522
94,400	3,522
94,500	3,528
94,600	3,528
94,700	3,522
94,800	3,528
94,900	3,522
95,000	3,528
95,100	3,528
95,200	3,522
95,300	3,522
95,400	3,528
95,500	3,522
95,600	3,528
95,700	3,522
95,800	3,522
95,900	3,528
96,000	3,528
96,100	3,528
96,200	3,528
96,300	3,522
96,400	3,528
96,500	3,528
96,600	3,528
96,700	3,528
96,800	3,528
96,900	3,528
97,000	3,528
97,100	3,528
97,200	3,528
97,300	3,528
97,400	3,528
97,500	3,528
97,600	3,528
97,700	3,528
97,800	3,528
97,900	3,528
98,000	3,528
98,100	3,528
98,200	3,528
98,300	3,528
98,400	3,528
98,500	3,528
98,600	3,528
98,700	3,528
98,800	3,528
98,900	3,528
99,000	3,528
99,100	3,528
99,200	3,528
99,300	3,528
99,400	3,528
99,500	3,528
99,600	3,533
99,700	3,528
99,800	3,533
99,900	3,533
100,000	3,528
100,100	3,528
100,200	3,528
100,300	3,533
100,400	3,528
100,500	3,528
100,600	3,528
100,700	3,528
100,800	3,528
100,900	3,533
101,000	3,528
101,100	3,533
101,200	3,528
101,300	3,528
101,400	3,533
101,500	3,533
101,600	3,528
101,700	3,533
101,800	3,528
101,900	3,528
102,000	3,533
102,100	3,533
102,200	3,533
102,300	3,528
102,400	3,533
102,500	3,533
102,600	3,528
102,700	3,528
102,800	3,533
102,900	3,528
103,000	3,533
103,100	3,528
103,200	3,528
103,300	3,533
103,400	3,528
103,500	3,533
103,600	3,528
103,700	3,533
103,800	3,533
103,900	3,528
104,000	3,533
104,100	3,533
104,200	3,528
104,300	3,533
104,400	3,533
104,500	3,533
104,600	3,533
104,700	3,533
104,800	3,533
104,900	3,533
105,000	3,528
105,100	3,533
105,200	3,533
105,300	3,533
105,400	3,533
105,500	3,533
105,600	3,528
105,700	3,528
105,800	3,533
105,900	3,533
106,000	3,533
106,100	3,533
106,200	3,533
106,300	3,533
106,400	3,533
106,500	3,533
106,600	3,533
106,700	3,533
106,800	3,533
106,900	3,533
107,000	3,538
107,100	3,538
107,200	3,533
107,300	3,533
107,400	3,533
107,500	3,533
107,600	3,533
107,700	3,533
107,800	3,533
107,900	3,533
108,000	3,533
108,100	3,533
108,200	3,533
108,300	3,533
108,400	3,533
108,500	3,533
108,600	3,533
108,700	3,533
108,800	3,533
108,900	3,538
109,000	3,533
109,100	3,538
109,200	3,533
109,300	3,533
109,400	3,533
109,500	3,533
109,600	3,533
109,700	3,533
109,800	3,533
109,900	3,533
110,000	3,533
110,100	3,533
110,200	3,538
110,300	3,538
110,400	3,533
110,500	3,533
110,600	3,538
110,700	3,533
110,800	1,331
110,900	1,300
111,000	1,279
111,100	0,892
111,200	0,866
111,300	0,851
111,400	0,835
111,500	0,825
111,600	0,810
111,700	0,805
111,800	0,799
111,900	0,784
112,000	0,779
112,100	0,768
112,200	0,763
112,300	0,758
112,400	0,748
112,500	0,748
112,600	0,743
112,700	0,737
112,800	0,732
112,900	0,732
113,000	0,722
113,100	0,722
113,200	0,717
113,300	0,717
113,400	0,712
113,500	0,712
113,600	0,707
113,700	0,701
113,800	0,701
113,900	0,701
114,000	0,696
114,100	0,696
114,200	0,691
114,300	0,691
114,400	0,691
114,500	0,691
114,600	0,686
114,700	0,686
114,800	0,681
114,900	0,681
115,000	0,676
115,100	0,676
115,200	0,676
115,300	0,670
115,400	0,670
115,500	0,670
115,600	0,670
115,700	0,665
115,800	0,665
115,900	0,660
116,000	0,660
116,100	0,660
116,200	0,660
116,300	0,660
116,400	0,655
116,500	0,655
116,600	0,655
116,700	0,655
116,800	0,650
116,900	0,650
117,000	0,650
117,100	0,650
117,200	0,645
117,300	0,645
117,400	0,645
117,500	0,645
117,600	0,640
117,700	0,640
117,800	0,634
117,900	0,634
118,000	0,634
118,100	0,634
118,200	0,634
118,300	0,634
118,400	0,629
118,500	0,629
118,600	0,629
118,700	0,624
118,800	0,629
118,900	0,624
119,000	0,624
119,100	0,619
119,200	0,619
119,300	0,619
119,400	0,619
119,500	0,614
119,600	0,614
119,700	0,614
119,800	0,609
119,900	0,609
120,000	0,609
120,100	0,609
120,200	0,603
120,300	0,609
120,400	0,603
120,500	0,598
120,600	0,598
120,700	0,603
120,800	0,603
120,900	0,598
121,000	0,598
121,100	0,593
121,200	0,598
121,300	0,593
121,400	0,593
121,500	0,588
121,600	0,588
121,700	0,588
121,800	0,588
121,900	0,588
122,000	0,588
122,100	0,583
122,200	0,583
122,300	0,583
122,400	0,583
122,500	0,578
122,600	0,578
122,700	0,572
122,800	0,572
122,900	0,578
123,000	0,572
123,100	0,572
123,200	0,572
123,300	0,567
123,400	0,567
123,500	0,572
123,600	0,567
123,700	0,562
123,800	0,562
123,900	0,562
124,000	0,562
124,100	0,557
124,200	0,557
124,300	0,557
124,400	0,557
124,500	0,557
124,600	0,557
124,700	0,557
124,800	0,552
124,900	0,552
125,000	0,552
125,100	0,552
125,200	0,547
125,300	0,547
125,400	0,547
125,500	0,542
125,600	0,542
125,700	0,542
125,800	0,542
125,900	0,542
126,000	0,536
126,100	0,536
126,200	0,536
126,300	0,536
126,400	0,536
126,500	0,531
126,600	0,531
126,700	0,531
126,800	0,531
126,900	0,531
127,000	0,526
127,100	0,526
127,200	0,526
127,300	0,526
127,400	0,526
127,500	0,526
127,600	0,526
127,700	0,521
127,800	0,521
127,900	0,516
128,000	0,521
128,100	0,516
128,200	0,516
128,300	0,516
128,400	0,516
128,500	0,516
128,600	0,511
128,700	0,511
128,800	0,511
128,900	0,511
129,000	0,511
129,100	0,505
129,200	0,505
129,300	0,505
129,400	0,505
129,500	0,500
129,600	0,505
129,700	0,500
129,800	0,495
129,900	0,500
130,000	0,500
130,100	0,495
130,200	0,495
130,300	0,495
130,400	0,490
130,500	0,490
130,600	0,490
130,700	0,490
130,800	0,490
130,900	0,490
131,000	0,490
131,100	0,490
131,200	0,485
131,300	0,485
131,400	0,485
131,500	0,485
131,600	0,485
131,700	0,480
131,800	0,480
131,900	0,480
132,000	0,474
132,100	0,474
132,200	0,480
132,300	0,474
132,400	0,474
132,500	0,474
132,600	0,474
132,700	0,474
132,800	0,469
132,900	0,469
133,000	0,469
133,100	0,464
133,200	0,469
133,300	0,469
133,400	0,464
133,500	0,464
133,600	0,464
133,700	0,459
133,800	0,459
133,900	0,459
134,000	0,459
134,100	0,459
134,200	0,454
134,300	0,459
134,400	0,454
134,500	0,454
134,600	0,454
134,700	0,454
134,800	0,449
134,900	0,449
135,000	0,449
135,100	0,449
135,200	0,449
135,300	0,449
135,400	0,449
135,500	0,449
135,600	0,444
135,700	0,444
135,800	0,444
135,900	0,444
136,000	0,444
136,100	0,444
136,200	0,438
136,300	0,438
136,400	0,438
136,500	0,438
136,600	0,433
136,700	0,438
136,800	0,433
136,900	0,433
137,000	0,433
137,100	0,428
137,200	0,428
137,300	0,428
137,400	0,428
137,500	0,428
137,600	0,428
137,700	0,428
137,800	0,428
137,900	0,423
138,000	0,423
138,100	0,423
138,200	0,423
138,300	0,423
138,400	0,418
138,500	0,418
138,600	0,418
138,700	0,418
138,800	0,418
138,900	0,418
139,000	0,413
139,100	0,418
139,200	0,413
139,300	0,413
139,400	0,413
139,500	0,413
139,600	0,413
139,700	0,407
139,800	0,413
139,900	0,407
140,000	0,407
140,100	0,407
140,200	0,407
140,300	0,407
140,400	0,407
140,500	0,402
140,600	0,402
140,700	0,402
140,800	0,402
140,900	0,402
141,000	0,402
141,100	0,397
141,200	0,397
141,300	0,397
141,400	0,397
141,500	0,397
141,600	0,397
141,700	0,392
141,800	0,392
141,900	0,392
142,000	0,392
142,100	0,392
142,200	0,392
142,300	0,387
142,400	0,387
142,500	0,387
142,600	0,392
142,700	0,387
142,800	0,387
142,900	0,382
143,000	0,387
143,100	0,382
143,200	0,387
143,300	0,382
143,400	0,382
143,500	0,382
143,600	0,376
143,700	0,382
143,800	0,382
143,900	0,376
144,000	0,376
144,100	0,376
144,200	0,376
144,300	0,371
144,400	0,371
144,500	0,371
144,600	0,371
144,700	0,371
144,800	0,371
144,900	0,371
145,000	0,371
145,100	0,371
145,200	0,366
145,300	0,366
145,400	0,366
145,500	0,366
145,600	0,366
145,700	0,361
145,800	0,361
145,900	0,366
146,000	0,361
146,100	0,361
146,200	0,361
146,300	0,361
146,400	0,356
146,500	0,356
146,600	0,356
146,700	0,356
146,800	0,356
146,900	0,356
147,000	0,356
147,100	0,356
147,200	0,356
147,300	0,356
147,400	0,351
147,500	0,351
147,600	0,351
147,700	0,351
147,800	0,351
147,900	0,351
148,000	0,346
148,100	0,346
148,200	0,346
148,300	0,351
148,400	0,346
148,500	0,346
148,600	0,346
148,700	0,340
148,800	0,340
148,900	0,346
149,000	0,346
149,100	0,340
149,200	0,340
149,300	0,340
149,400	0,340
149,500	0,340
149,600	0,335
149,700	0,335
149,800	0,335
149,900	0,335
150,000	0,335
150,100	0,335
150,200	0,330
150,300	0,330
150,400	0,335
150,500	0,330
150,600	0,330
150,700	0,330
150,800	0,330
150,900	0,330
151,000	0,330
151,100	0,330
151,200	0,330
151,300	0,330
151,400	0,325
151,500	0,325
151,600	0,325
151,700	0,325
151,800	0,325
151,900	0,325
152,000	0,325
152,100	0,320
152,200	0,325
152,300	0,320
152,400	0,320
152,500	0,320
152,600	0,320
152,700	0,315
152,800	0,315
152,900	0,315
153,000	0,315
153,100	0,315
153,200	0,315
153,300	0,315
153,400	0,315
153,500	0,315
153,600	0,315
153,700	0,309
153,800	0,315
153,900	0,309
154,000	0,309
154,100	0,304
154,200	0,309
154,300	0,309
154,400	0,309
154,500	0,309
154,600	0,309
154,700	0,309
154,800	0,304
154,900	0,304
155,000	0,304
155,100	0,299
155,200	0,304
155,300	0,299
155,400	0,304
155,500	0,299
155,600	0,299
155,700	0,299
155,800	0,299
155,900	0,299
156,000	0,299
156,100	0,299
156,200	0,299
156,300	0,299
156,400	0,299
156,500	0,299
156,600	0,294
156,700	0,294
156,800	0,294
156,900	0,294
157,000	0,294
157,100	0,294
157,200	0,289
157,300	0,289
157,400	0,294
157,500	0,289
157,600	0,289
157,700	0,289
157,800	0,289
157,900	0,289
158,000	0,284
158,100	0,289
158,200	0,289
158,300	0,289
158,400	0,284
158,500	0,284
158,600	0,289
158,700	0,284
158,800	0,278
158,900	0,284
159,000	0,284
159,100	0,278
159,200	0,278
159,300	0,284
159,400	0,278
159,500	0,273
159,600	0,278
159,700	0,278
159,800	0,273
159,900	0,273
160,000	0,278
160,100	0,273
160,200	0,273
160,300	0,273
160,400	0,273
160,500	0,273
160,600	0,273
160,700	0,273
160,800	0,273
160,900	0,273
161,000	0,273
161,100	0,268
161,200	0,273
161,300	0,268
161,400	0,273
161,500	0,268
161,600	0,268
161,700	0,263
161,800	0,268
161,900	0,268
162,000	0,268
162,100	0,263
162,200	0,263
162,300	0,263
162,400	0,263
162,500	0,263
162,600	0,263
162,700	0,263
162,800	0,258
162,900	0,263
163,000	0,258
163,100	0,263
163,200	0,258
163,300	0,263
163,400	0,258
163,500	0,258
163,600	0,258
163,700	0,258
163,800	0,258
163,900	0,258
164,000	0,258
164,100	0,253
164,200	0,258
164,300	0,253
164,400	0,253
164,500	0,253
164,600	0,258
164,700	0,253
164,800	0,253
164,900	0,253
165,000	0,253
165,100	0,253
165,200	0,253
165,300	0,253
165,400	0,248
165,500	0,253
165,600	0,248
165,700	0,248
165,800	0,248
165,900	0,248
166,000	0,248
166,100	0,242
166,200	0,242
166,300	0,248
166,400	0,242
166,500	0,248
166,600	0,242
166,700	0,242
166,800	0,242
166,900	0,242
167,000	0,242
167,100	0,242
167,200	0,242
167,300	0,242
167,400	0,237
167,500	0,242
167,600	0,237
167,700	0,237
167,800	0,237
167,900	0,237
168,000	0,242
168,100	0,237
168,200	0,237
168,300	0,237
168,400	0,237
168,500	0,237
168,600	0,237
168,700	0,237
168,800	0,232
168,900	0,237
169,000	0,232
169,100	0,232
169,200	0,232
169,300	0,232
169,400	0,232
169,500	0,232
169,600	0,232
169,700	0,232
169,800	0,232
169,900	0,232
170,000	0,232
170,100	0,227
170,200	0,227
170,300	0,227
170,400	0,227
170,500	0,232
170,600	0,227
170,700	0,227
170,800	0,227
170,900	0,222
171,000	0,227
171,100	0,222
171,200	0,222
171,300	0,222
171,400	0,222
171,500	0,222
171,600	0,222
171,700	0,222
171,800	0,222
171,900	0,222
172,000	0,222
172,100	0,217
172,200	0,222
172,300	0,222
172,400	0,217
172,500	0,217
172,600	0,222
172,700	0,217
172,800	0,217
172,900	0,217
173,000	0,217
173,100	0,217
173,200	0,211
173,300	0,217
173,400	0,217
173,500	0,217
173,600	0,217
173,700	0,211
173,800	0,217
173,900	0,217
174,000	0,211
174,100	0,211
174,200	0,217
174,300	0,211
174,400	0,211
174,500	0,211
174,600	0,206
174,700	0,211
174,800	0,206
174,900	0,211
175,000	0,211
175,100	0,206
175,200	0,206
175,300	0,206
175,400	0,206
175,500	0,206
175,600	0,206
175,700	0,206
175,800	0,206
175,900	0,206
176,000	0,206
176,100	0,206
176,200	0,206
176,300	0,206
176,400	0,201
176,500	0,201
176,600	0,201
176,700	0,201
176,800	0,201
176,900	0,201
177,000	0,201
177,100	0,201
177,200	0,201
177,300	0,201
177,400	0,201
177,500	0,201
177,600	0,201
177,700	0,201
177,800	0,201
177,900	0,201
178,000	0,201
178,100	0,196
178,200	0,201
178,300	0,201
178,400	0,196
178,500	0,196
178,600	0,196
178,700	0,196
178,800	0,196
178,900	0,196
179,000	0,191
179,100	0,196
179,200	0,196
179,300	0,196
179,400	0,191
179,500	0,191
179,600	0,191
179,700	0,191
179,800	0,191
179,900	0,191
180,000	0,191
180,100	0,191
180,200	0,191
180,300	0,191
180,400	0,191
180,500	0,191
180,600	0,191
180,700	0,186
180,800	0,186
180,900	0,186
181,000	0,186
181,100	0,191
181,200	0,186
181,300	0,186
181,400	0,186
181,500	0,186
181,600	0,186
181,700	0,186
181,800	0,186
181,900	0,186
182,000	0,186
182,100	0,186
182,200	0,186
182,300	0,186
182,400	0,181
182,500	0,181
182,600	0,181
182,700	0,186
182,800	0,181
182,900	0,181
183,000	0,181
183,100	0,181
183,200	0,181
183,300	0,181
183,400	0,181
183,500	0,181
183,600	0,181
183,700	0,181
183,800	0,181
183,900	0,175
184,000	0,181
184,100	0,175
184,200	0,175
184,300	0,175
184,400	0,175
184,500	0,175
184,600	0,175
184,700	0,175
184,800	0,175
184,900	0,175
185,000	0,175
185,100	0,175
185,200	0,175
185,300	0,170
185,400	0,175
185,500	0,175
185,600	0,175
185,700	0,170
185,800	0,175
185,900	0,170
186,000	0,170
186,100	0,170
186,200	0,170
186,300	0,170
186,400	0,170
186,500	0,170
186,600	0,170
186,700	0,170
186,800	0,170
186,900	0,165
187,000	0,170
187,100	0,165
187,200	0,170
187,300	0,165
187,400	0,170
187,500	0,165
187,600	0,165
187,700	0,165
187,800	0,165
187,900	0,165
188,000	0,165
188,100	0,165
188,200	0,165
188,300	0,165
188,400	0,165
188,500	0,165
188,600	0,165
188,700	0,165
188,800	0,165
188,900	0,165
189,000	0,165
189,100	0,160
189,200	0,160
189,300	0,160
189,400	0,160
189,500	0,160
189,600	0,165
189,700	0,160
189,800	0,160
189,900	0,160
190,000	0,160
190,100	0,160
190,200	0,160
190,300	0,160
190,400	0,160
190,500	0,155
190,600	0,155
190,700	0,155
190,800	0,160
190,900	0,155
191,000	0,155
191,100	0,155
191,200	0,155
191,300	0,160
191,400	0,155
191,500	0,160
191,600	0,155
191,700	0,155
191,800	0,155
191,900	0,155
192,000	0,155
192,100	0,155
192,200	0,155
192,300	0,155
192,400	0,155
192,500	0,155
192,600	0,155
192,700	0,155
192,800	0,155
192,900	0,150
193,000	0,150
193,100	0,155
193,200	0,155
193,300	0,150
193,400	0,155
193,500	0,150
193,600	0,144
193,700	0,150
193,800	0,150
193,900	0,150
194,000	0,144
194,100	0,150
194,200	0,150
194,300	0,150
194,400	0,150
194,500	0,144
194,600	0,144
194,700	0,150
194,800	0,144
194,900	0,144
195,000	0,144
195,100	0,144
195,200	0,144
195,300	0,150
195,400	0,144
195,500	0,139
195,600	0,144
195,700	0,144
195,800	0,144
195,900	0,144
196,000	0,144
196,100	0,144
196,200	0,144
196,300	0,144
196,400	0,144
196,500	0,139
196,600	0,139
196,700	0,144
196,800	0,139
196,900	0,144
197,000	0,139
197,100	0,144
197,200	0,144
197,300	0,139
197,400	0,139
197,500	0,139
197,600	0,139
197,700	0,139
197,800	0,139
197,900	0,139
198,000	0,139
198,100	0,139
198,200	0,139
198,300	0,134
198,400	0,139
198,500	0,139
198,600	0,139
198,700	0,139
198,800	0,134
198,900	0,134
199,000	0,139
199,100	0,139
199,200	0,139
199,300	0,134
199,400	0,139
199,500	0,134
199,600	0,134
199,700	0,134
199,800	0,134
199,900	0,134
200,000	0,134
200,100	0,134
200,200	0,134
200,300	0,134
200,400	0,134
200,500	0,134
200,600	0,134
200,700	0,134
200,800	0,129
200,900	0,129
201,000	0,129
201,100	0,129
201,200	0,134
201,300	0,129
201,400	0,129
201,500	0,134
201,600	0,129
201,700	0,129
201,800	0,129
201,900	0,129
202,000	0,129
202,100	0,129
202,200	0,129
202,300	0,129
202,400	0,129
202,500	0,129
202,600	0,129
202,700	0,129
202,800	0,129
202,900	0,129
203,000	0,129
203,100	0,129
203,200	0,129
203,300	0,129
203,400	0,124
203,500	0,129
203,600	0,124
203,700	0,129
203,800	0,129
203,900	0,129
204,000	0,129
204,100	0,124
204,200	0,124
204,300	0,124
204,400	0,124
204,500	0,124
204,600	0,124
204,700	0,124
204,800	0,124
204,900	0,124
205,000	0,124
205,100	0,124
205,200	0,124
205,300	0,124
205,400	0,124
205,500	0,124
205,600	0,124
205,700	0,124
205,800	0,119
205,900	0,124
206,000	0,124
206,100	0,119
206,200	0,119
206,300	0,119
206,400	0,124
206,500	0,119
206,600	0,124
206,700	0,119
206,800	0,119
206,900	0,119
207,000	0,119
207,100	0,119
207,200	0,119
207,300	0,119
207,400	0,119
207,500	0,119
207,600	0,119
207,700	0,119
207,800	0,119
207,900	0,119
208,000	0,119
208,100	0,119
208,200	0,119
208,300	0,113
208,400	0,119
208,500	0,119
208,600	0,119
208,700	0,119
208,800	0,113
208,900	0,119
209,000	0,113
209,100	0,113
209,200	0,113
209,300	0,119
209,400	0,113
209,500	0,119
209,600	0,113
209,700	0,113
209,800	0,113
209,900	0,113
210,000	0,113
210,100	0,113
210,200	0,113
210,300	0,113
210,400	0,113
210,500	0,113
210,600	0,113
210,700	0,113
210,800	0,113
210,900	0,113
211,000	0,108
211,100	0,113
211,200	0,113
211,300	0,113
211,400	0,113
211,500	0,108
211,600	0,113
211,700	0,113
211,800	0,113
211,900	0,113
212,000	0,108
212,100	0,108
212,200	0,108
212,300	0,108
212,400	0,108
212,500	0,108
212,600	0,108
212,700	0,108
212,800	0,108
212,900	0,108
213,000	0,108
213,100	0,108
213,200	0,113
213,300	0,108
213,400	0,108
213,500	0,108
213,600	0,108
213,700	0,108
213,800	0,108
213,900	0,108
214,000	0,103
214,100	0,108
214,200	0,108
214,300	0,108
214,400	0,108
214,500	0,108
214,600	0,103
214,700	0,108
214,800	0,108
214,900	0,108
215,000	0,103
215,100	0,108
215,200	0,103
215,300	0,108
215,400	0,103
215,500	0,103
215,600	0,103
215,700	0,103
215,800	0,103
215,900	0,103
216,000	0,103
216,100	0,103
216,200	0,103
216,300	0,103
216,400	0,103
216,500	0,103
216,600	0,103
216,700	0,103
216,800	0,103
216,900	0,103
217,000	0,103
217,100	0,103
217,200	0,098
217,300	0,103
217,400	0,098
217,500	0,103
217,600	0,098
217,700	0,098
217,800	0,103
217,900	0,098
218,000	0,103
218,100	0,103
218,200	0,098
218,300	0,098
218,400	0,098
218,500	0,103
218,600	0,098
218,700	0,098
218,800	0,098
218,900	0,103
219,000	0,098
219,100	0,098
219,200	0,098
219,300	0,098
219,400	0,098
219,500	0,098
219,600	0,098
219,700	0,098
219,800	0,098
219,900	0,098
220,000	0,098
220,100	0,098
220,200	0,098
220,300	0,098
220,400	0,098
220,500	0,098
220,600	0,093
220,700	0,098
220,800	0,098
220,900	0,098
221,000	0,093
221,100	0,093
221,200	0,093
221,300	0,093
221,400	0,098
221,500	0,093
221,600	0,098
221,700	0,093
221,800	0,093
221,900	0,093
222,000	0,093
222,100	0,098
222,200	0,098
222,300	0,098
222,400	0,093
222,500	0,093
222,600	0,098
222,700	0,093
222,800	0,093
222,900	0,093
223,000	0,093
223,100	0,093
223,200	0,093
223,300	0,088
223,400	0,093
223,500	0,093
223,600	0,093
223,700	0,093
223,800	0,093
223,900	0,093
224,000	0,088
224,100	0,093
224,200	0,088
224,300	0,088
224,400	0,093
224,500	0,093
224,600	0,093
224,700	0,093
224,800	0,093
224,900	0,093
225,000	0,093
225,100	0,088
225,200	0,088
225,300	0,093
225,400	0,093
225,500	0,093
225,600	0,088
225,700	0,093
225,800	0,088
225,900	0,088
226,000	0,088
226,100	0,083
226,200	0,088
226,300	0,088
226,400	0,088
226,500	0,088
226,600	0,088
226,700	0,088
226,800	0,088
226,900	0,088
227,000	0,088
227,100	0,088
227,200	0,088
227,300	0,088
227,400	0,088
227,500	0,088
227,600	0,088
227,700	0,088
227,800	0,088
227,900	0,088
228,000	0,088
228,100	0,088
228,200	0,083
228,300	0,088
228,400	0,088
228,500	0,088
228,600	0,083
228,700	0,088
228,800	0,083
228,900	0,088
229,000	0,083
229,100	0,083
229,200	0,088
229,300	0,088
229,400	0,083
229,500	0,083
229,600	0,083
229,700	0,083
229,800	0,083
229,900	0,083
230,000	0,077
230,100	0,083
230,200	0,083
230,300	0,083
230,400	0,083
230,500	0,088
230,600	0,083
230,700	0,083
230,800	0,083
230,900	0,083
231,000	0,083
231,100	0,083
231,200	0,083
231,300	0,083
231,400	0,083
231,500	0,083
231,600	0,083
231,700	0,083
231,800	0,083
231,900	0,083
232,000	0,083
232,100	0,083
232,200	0,083
232,300	0,083
232,400	0,083
232,500	0,083
232,600	0,083
232,700	0,083
232,800	0,077
232,900	0,077
233,000	0,083
233,100	0,083
233,200	0,083
233,300	0,077
233,400	0,077
233,500	0,077
233,600	0,083
233,700	0,083
233,800	0,077
233,900	0,077
234,000	0,083
234,100	0,077
234,200	0,077
234,300	0,077
234,400	0,077
234,500	0,077
234,600	0,083
234,700	0,077
234,800	0,072
234,900	0,077
235,000	0,077
235,100	0,077
235,200	0,077
235,300	0,077
235,400	0,077
235,500	0,077
235,600	0,077
235,700	0,077
235,800	0,077
235,900	0,077
236,000	0,077
236,100	0,077
236,200	0,077
236,300	0,077
236,400	0,077
236,500	0,077
236,600	0,072
236,700	0,077
236,800	0,077
236,900	0,077
237,000	0,077
237,100	0,072
237,200	0,077
237,300	0,077
237,400	0,072
237,500	0,072
237,600	0,077
237,700	0,077
237,800	0,072
237,900	0,072
238,000	0,072
238,100	0,072
238,200	0,077
238,300	0,077
238,400	0,077
238,500	0,077
238,600	0,072
238,700	0,072
238,800	0,072
238,900	0,077
239,000	0,077
239,100	0,072
239,200	0,072
239,300	0,072
239,400	0,072
239,500	0,072
239,600	0,072
239,700	0,072
239,800	0,072
239,900	0,072
240,000	0,072
240,100	0,072
240,200	0,072
240,300	0,072
240,400	0,072
240,500	0,072
240,600	0,072
240,700	0,072
240,800	0,072
240,900	0,072
241,000	0,072
241,100	0,072
241,200	0,072
241,300	0,072
241,400	0,072
241,500	0,072
241,600	0,072
241,700	0,072
241,800	0,072
241,900	0,072
242,000	0,072
242,100	0,072
242,200	0,072
242,300	0,072
242,400	0,072
242,500	0,072
242,600	0,072
242,700	0,067
242,800	0,072
242,900	0,072
243,000	0,072
243,100	0,072
243,200	0,067
243,300	0,067
243,400	0,072
243,500	0,072
243,600	0,072
243,700	0,067
243,800	0,067
243,900	0,072
244,000	0,072
244,100	0,067
244,200	0,072
244,300	0,067
244,400	0,067
244,500	0,067
244,600	0,067
244,700	0,072
244,800	0,067
244,900	0,067
245,000	0,067
245,100	0,072
245,200	0,067
245,300	0,067
245,400	0,067
245,500	0,067
245,600	0,067
245,700	0,067
245,800	0,067
245,900	0,067
246,000	0,067
246,100	0,067
246,200	0,067
246,300	0,067
246,400	0,067
246,500	0,067
246,600	0,067
246,700	0,067
246,800	0,067
246,900	0,067
247,000	0,067
247,100	0,067
247,200	0,067
247,300	0,067
247,400	0,067
247,500	0,067
247,600	0,067
247,700	0,062
247,800	0,062
247,900	0,062
248,000	0,067
248,100	0,067
248,200	0,067
248,300	0,062
248,400	0,067
248,500	0,067
248,600	0,067
248,700	0,067
248,800	0,062
248,900	0,067
249,000	0,062
249,100	0,062
249,200	0,067
249,300	0,067
249,400	0,062
249,500	0,062
249,600	0,067
249,700	0,067
249,800	0,067
249,900	0,062
250,000	0,062
250,100	0,067
250,200	0,062
250,300	0,062
250,400	0,062
250,500	0,062
250,600	0,062
250,700	0,067
250,800	0,062
250,900	0,062
251,000	0,067
251,100	0,067
251,200	0,062
251,300	0,067
251,400	0,062
251,500	0,062
251,600	0,067
251,700	0,062
251,800	0,062
251,900	0,062
252,000	0,062
252,100	0,062
252,200	0,062
252,300	0,062
252,400	0,062
252,500	0,062
252,600	0,062
252,700	0,062
252,800	0,062
252,900	0,062
253,000	0,062
253,100	0,062
253,200	0,062
253,300	0,062
253,400	0,062
253,500	0,062
253,600	0,062
253,700	0,062
253,800	0,067
253,900	0,062
254,000	0,062
254,100	0,062
254,200	0,062
254,300	0,062
254,400	0,062
254,500	0,062
254,600	0,062
254,700	0,062
254,800	0,062
254,900	0,057
255,000	0,062
255,100	0,062
255,200	0,057
255,300	0,062
255,400	0,062
255,500	0,057
255,600	0,062
255,700	0,062
255,800	0,062
255,900	0,062
256,000	0,062
256,100	0,057
256,200	0,062
256,300	0,057
256,400	0,062
256,500	0,057
256,600	0,057
256,700	0,062
256,800	0,057
256,900	0,057
257,000	0,057
257,100	0,062
257,200	0,057
257,300	0,057
257,400	0,057
257,500	0,062
257,600	0,062
257,700	0,057
257,800	0,062
257,900	0,057
258,000	0,057
258,100	0,057
258,200	0,057
258,300	0,062
258,400	0,057
258,500	0,057
258,600	0,062
258,700	0,057
258,800	0,057
258,900	0,057
259,000	0,057
259,100	0,057
259,200	0,057
259,300	0,057
259,400	0,062
259,500	0,057
259,600	0,057
259,700	0,062
259,800	0,057
259,900	0,057
260,000	0,057
260,100	0,057
260,200	0,057
260,300	0,057
260,400	0,057
260,500	0,057
260,600	0,057
260,700	0,057
260,800	0,057
260,900	0,052
261,000	0,057
261,100	0,057
261,200	0,057
261,300	0,057
261,400	0,057
261,500	0,057
261,600	0,057
261,700	0,057
261,800	0,057
261,900	0,057
262,000	0,057
262,100	0,057
262,200	0,057
262,300	0,057
262,400	0,057
262,500	0,057
262,600	0,057
262,700	0,057
262,800	0,057
262,900	0,057
263,000	0,057
263,100	0,057
263,200	0,057
263,300	0,052
263,400	0,057
263,500	0,052
263,600	0,057
263,700	0,052
263,800	0,057
263,900	0,057
264,000	0,057
264,100	0,057
264,200	0,057
264,300	0,057
264,400	0,057
264,500	0,052
264,600	0,052
264,700	0,057
264,800	0,052
264,900	0,057
265,000	0,057
265,100	0,052
265,200	0,052
265,300	0,057
265,400	0,052
265,500	0,057
265,600	0,057
265,700	0,052
265,800	0,052
265,900	0,052
266,000	0,057
266,100	0,052
266,200	0,052
266,300	0,057
266,400	0,052
266,500	0,057
266,600	0,052
266,700	0,052
266,800	0,057
266,900	0,052
267,000	0,052
267,100	0,052
267,200	0,052
267,300	0,052
267,400	0,057
267,500	0,052
267,600	0,052
267,700	0,052
267,800	0,052
267,900	0,052
268,000	0,052
268,100	0,052
268,200	0,052
268,300	0,052
268,400	0,052
268,500	0,052
268,600	0,052
268,700	0,052
268,800	0,052
268,900	0,052
269,000	0,052
269,100	0,052
269,200	0,052
269,300	0,052
269,400	0,052
269,500	0,052
269,600	0,052
269,700	0,052
269,800	0,052
269,900	0,052
270,000	0,052
270,100	0,052
270,200	0,052
270,300	0,052
270,400	0,052
270,500	0,052
270,600	0,052
270,700	0,052
270,800	0,052
270,900	0,052
271,000	0,052
271,100	0,052
271,200	0,052
271,300	0,052
271,400	0,052
271,500	0,052
271,600	0,052
271,700	0,052
271,800	0,052
271,900	0,046
272,000	0,052
272,100	0,052
272,200	0,052
272,300	0,052
272,400	0,046
272,500	0,052
272,600	0,052
272,700	0,052
272,800	0,052
272,900	0,052
273,000	0,052
273,100	0,046
273,200	0,046
273,300	0,046
273,400	0,052
273,500	0,046
273,600	0,052
273,700	0,052
273,800	0,046
273,900	0,052
274,000	0,046
274,100	0,052
274,200	0,052
274,300	0,046
274,400	0,052
274,500	0,052
274,600	0,046
274,700	0,052
274,800	0,046
274,900	0,046
275,000	0,046
275,100	0,052
275,200	0,046
275,300	0,046
275,400	0,046
275,500	0,046
275,600	0,052
275,700	0,046
275,800	0,052
275,900	0,046
276,000	0,046
276,100	0,046
276,200	0,046
276,300	0,046
276,400	0,046
276,500	0,046
276,600	0,046
276,700	0,046
276,800	0,046
276,900	0,052
277,000	0,052
277,100	0,052
277,200	0,046
277,300	0,046
277,400	0,046
277,500	0,046
277,600	0,046
277,700	0,046
277,800	0,046
277,900	0,046
278,000	0,052
278,100	0,052
278,200	0,046
278,300	0,052
278,400	0,046
278,500	0,046
278,600	0,046
278,700	0,046
278,800	0,046
278,900	0,046
279,000	0,046
279,100	0,046
279,200	0,046
279,300	0,046
279,400	0,046
279,500	0,046
279,600	0,046
279,700	0,046
279,800	0,046
279,900	0,046
280,000	0,046
280,100	0,046
280,200	0,046
280,300	0,046
280,400	0,046
280,500	0,046
280,600	0,046
280,700	0,041
280,800	0,046
280,900	0,046
281,000	0,046
281,100	0,041
281,200	0,046
281,300	0,046
281,400	0,046
281,500	0,046
281,600	0,041
281,700	0,046
281,800	0,046
281,900	0,046
282,000	0,046
282,100	0,046
282,200	0,046
282,300	0,041
282,400	0,046
282,500	0,046
282,600	0,046
282,700	0,046
282,800	0,046
282,900	0,041
283,000	0,046
283,100	0,046
283,200	0,046
283,300	0,046
283,400	0,041
283,500	0,046
283,600	0,046
283,700	0,046
283,800	0,046
283,900	0,046
284,000	0,046
284,100	0,046
284,200	0,046
284,300	0,046
284,400	0,041
284,500	0,046
284,600	0,046
284,700	0,041
284,800	0,046
284,900	0,046
285,000	0,046
285,100	0,041
285,200	0,046
285,300	0,046
285,400	0,046
285,500	0,041
285,600	0,046
285,700	0,046
285,800	0,041
285,900	0,041
286,000	0,041
286,100	0,041
286,200	0,046
286,300	0,041
286,400	0,041
286,500	0,046
286,600	0,041
286,700	0,041
286,800	0,041
286,900	0,046
287,000	0,041
287,100	0,041
287,200	0,046
287,300	0,041
287,400	0,041
287,500	0,046
287,600	0,041
287,700	0,046
287,800	0,041
287,900	0,041
288,000	0,041
288,100	0,046
288,200	0,046
288,300	0,046
288,400	0,041
288,500	0,046
288,600	0,046
288,700	0,046
288,800	0,041
288,900	0,041
289,000	0,046
289,100	0,041
289,200	0,041
289,300	0,041
289,400	0,041
289,500	0,046
289,600	0,046
289,700	0,041
289,800	0,041
289,900	0,041
290,000	0,041
290,100	0,041
290,200	0,041
290,300	0,041
290,400	0,041
290,500	0,041
290,600	0,041
290,700	0,041
290,800	0,041
290,900	0,041
291,000	0,041
291,100	0,046
291,200	0,041
291,300	0,046
291,400	0,041
291,500	0,041
291,600	0,041
291,700	0,046
291,800	0,046
291,900	0,041
292,000	0,041
292,100	0,041
292,200	0,041
292,300	0,041
292,400	0,041
292,500	0,041
292,600	0,041
292,700	0,041
292,800	0,041
292,900	0,041
293,000	0,041
293,100	0,041
293,200	0,036
293,300	0,041
293,400	0,041
293,500	0,041
293,600	0,041
293,700	0,041
293,800	0,041
293,900	0,041
294,000	0,041
294,100	0,041
294,200	0,041
294,300	0,041
294,400	0,041
294,500	0,041
294,600	0,041
294,700	0,041
294,800	0,041
294,900	0,041
295,000	0,041
295,100	0,041
295,200	0,041
295,300	0,041
295,400	0,041
295,500	0,041
295,600	0,041
295,700	0,041
295,800	0,041
295,900	0,036
296,000	0,041
296,100	0,041
296,200	0,036
296,300	0,041
296,400	0,041
296,500	0,041
296,600	0,041
296,700	0,041
296,800	0,041
296,900	0,036
297,000	0,036
297,100	0,041
297,200	0,041
297,300	0,036
297,400	0,041
297,500	0,041
297,600	0,041
297,700	0,041
297,800	0,041
297,900	0,041
298,000	0,041
298,100	0,041
298,200	0,041
298,300	0,036
298,400	0,041
298,500	0,036
298,600	0,041
298,700	0,041
298,800	0,041
298,900	0,041
299,000	0,041
299,100	0,036
299,200	0,041
299,300	0,036
299,400	0,036
299,500	0,041
299,600	0,036
299,700	0,036
299,800	0,041
299,900	0,041
300,000	0,036
300,100	0,041
300,200	0,036
300,300	0,041
300,400	0,036
300,500	0,036
300,600	0,036
300,700	0,041
300,800	0,041
300,900	0,041
301,000	0,041
301,100	0,036
301,200	0,041
301,300	0,041
301,400	0,036
301,500	0,036
301,600	0,036
301,700	0,041
301,800	0,041
301,900	0,041
302,000	0,036
302,100	0,041
302,200	0,036
302,300	0,036
302,400	0,041
302,500	0,036
302,600	0,036
302,700	0,041
302,800	0,036
302,900	0,036
303,000	0,036
303,100	0,041
303,200	0,036
303,300	0,036
303,400	0,041
303,500	0,036
303,600	0,036
303,700	0,041
303,800	0,041
303,900	0,036
304,000	0,036
304,100	0,036
304,200	0,041
304,300	0,036
304,400	0,036
304,500	0,036
304,600	0,036
304,700	0,036
304,800	0,036
304,900	0,036
305,000	0,041
305,100	0,036
305,200	0,036
305,300	0,041
305,400	0,036
305,500	0,036
305,600	0,036
305,700	0,036
305,800	0,036
305,900	0,036
306,000	0,036
306,100	0,036
306,200	0,036
306,300	0,036
306,400	0,041
306,500	0,036
306,600	0,036
306,700	0,036
306,800	0,036
306,900	0,036
307,000	0,036
307,100	0,036
307,200	0,036
307,300	0,041
307,400	0,036
307,500	0,036
307,600	0,036
307,700	0,036
307,800	0,036
307,900	0,036
308,000	0,036
308,100	0,036
308,200	0,036
308,300	0,041
308,400	0,036
308,500	0,036
308,600	0,036
308,700	0,036
308,800	0,036
308,900	0,036
309,000	0,036
309,100	0,036
309,200	0,036
309,300	0,036
309,400	0,036
309,500	0,041
309,600	0,036
309,700	0,036
309,800	0,036
309,900	0,036
310,000	0,036
310,100	0,036
310,200	0,036
310,300	0,036
310,400	0,036
310,500	0,036
310,600	0,036
310,700	0,036
310,800	0,036
310,900	0,036
311,000	0,036
311,100	0,036
311,200	0,036
311,300	0,041
311,400	0,036
311,500	0,036
311,600	0,036
311,700	0,036
311,800	0,036
311,900	0,036
312,000	0,036
312,100	0,036
312,200	0,036
312,300	0,036
312,400	0,041
312,500	0,036
312,600	0,036
312,700	0,036
312,800	0,036
312,900	0,036
313,000	0,036
313,100	0,036
313,200	0,036
313,300	0,031
313,400	0,036
313,500	0,036
313,600	0,036
313,700	0,036
313,800	0,036
313,900	0,036
314,000	0,036
314,100	0,036
314,200	0,036
314,300	0,036
314,400	0,036
314,500	0,036
314,600	0,036
314,700	0,036
314,800	0,036
314,900	0,036
315,000	0,036
315,100	0,036
315,200	0,036
315,300	0,036
315,400	0,036
315,500	0,036
315,600	0,036
315,700	0,036
315,800	0,036
315,900	0,031
316,000	0,036
316,100	0,036
316,200	0,031
316,300	0,036
316,400	0,036
316,500	0,036
316,600	0,036
316,700	0,036
316,800	0,036
316,900	0,036
317,000	0,036
317,100	0,031
317,200	0,036
317,300	0,036
317,400	0,036
317,500	0,036
317,600	0,036
317,700	0,036
317,800	0,036
317,900	0,036
318,000	0,036
318,100	0,036
318,200	0,036
318,300	0,036
318,400	0,036
318,500	0,036
318,600	0,036
318,700	0,031
318,800	0,036
318,900	0,036
319,000	0,031
319,100	0,036
319,200	0,036
319,300	0,036
319,400	0,031
319,500	0,036
319,600	0,036
319,700	0,036
319,800	0,036
319,900	0,036
320,000	0,031
320,100	0,036
320,200	0,036
320,300	0,036
320,400	0,036
320,500	0,031
320,600	0,031
320,700	0,036
320,800	0,036
320,900	0,036
321,000	0,031
321,100	0,036
321,200	0,031
321,300	0,031
321,400	0,036
321,500	0,036
321,600	0,036
321,700	0,036
321,800	0,036
321,900	0,036
322,000	0,031
322,100	0,036
322,200	0,036
322,300	0,036
322,400	0,031
322,500	0,036
322,600	0,036
322,700	0,036
322,800	0,031
322,900	0,036
323,000	0,031
323,100	0,036
323,200	0,036
323,300	0,036
323,400	0,036
323,500	0,036
323,600	0,031
323,700	0,036
323,800	0,036
323,900	0,031
324,000	0,031
324,100	0,036
324,200	0,031
324,300	0,031
324,400	0,031
324,500	0,031
324,600	0,031
324,700	0,031
324,800	0,031
324,900	0,031
325,000	0,031
325,100	0,036
325,200	0,031
325,300	0,031
325,400	0,036
325,500	0,036
325,600	0,036
325,700	0,036
325,800	0,036
325,900	0,036
326,000	0,031
326,100	0,036
326,200	0,031
326,300	0,036
326,400	0,031
326,500	0,031
326,600	0,031
326,700	0,031
326,800	0,036
326,900	0,036
327,000	0,031
327,100	0,036
327,200	0,036
327,300	0,036
327,400	0,031
327,500	0,031
327,600	0,036
327,700	0,036
327,800	0,036
327,900	0,031
328,000	0,036
328,100	0,036
328,200	0,031
328,300	0,036
328,400	0,036
328,500	0,031
328,600	0,036
328,700	0,036
328,800	0,036
328,900	0,031
329,000	0,036
329,100	0,031
329,200	0,031
329,300	0,031
329,400	0,036
329,500	0,031
329,600	0,031
329,700	0,031
329,800	0,036
329,900	0,036
330,000	0,031
330,100	0,031
330,200	0,036
330,300	0,036
330,400	0,031
330,500	0,036
330,600	0,031
330,700	0,036
330,800	0,036
330,900	0,036
331,000	0,031
331,100	0,036
331,200	0,031
331,300	0,031
331,400	0,031
331,500	0,031
331,600	0,031
331,700	0,036
331,800	0,036
331,900	0,031
332,000	0,031
332,100	0,036
332,200	0,031
332,300	0,031
332,400	0,031
332,500	0,036
332,600	0,031
332,700	0,031
332,800	0,031
332,900	0,031
333,000	0,036
333,100	0,031
333,200	0,036
333,300	0,031
333,400	0,031
333,500	0,031
333,600	0,036
333,700	0,036
333,800	0,036
333,900	0,036
334,000	0,031
334,100	0,031
334,200	0,031
334,300	0,031
334,400	0,031
334,500	0,031
334,600	0,031
334,700	0,031
334,800	0,031
334,900	0,031
335,000	0,031
335,100	0,036
335,200	0,036
335,300	0,036
335,400	0,031
335,500	0,031
335,600	0,031
335,700	0,036
335,800	0,031
335,900	0,031
336,000	0,031
336,100	0,036
336,200	0,031
336,300	0,031
336,400	0,031
336,500	0,031
336,600	0,036
336,700	0,031
336,800	0,031
336,900	0,031
337,000	0,031
337,100	0,036
337,200	0,031
337,300	0,031
337,400	0,031
337,500	0,031
337,600	0,031
337,700	0,031
337,800	0,031
337,900	0,036
338,000	0,031
338,100	0,031
338,200	0,031
338,300	0,031
338,400	0,036
338,500	0,031
338,600	0,031
338,700	0,031
338,800	0,031
338,900	0,031
339,000	0,031
339,100	0,031
339,200	0,031
339,300	0,031
339,400	0,031
339,500	0,031
339,600	0,031
339,700	0,031
339,800	0,031
339,900	0,031
340,000	0,031
340,100	0,031
340,200	0,031
340,300	0,031
340,400	0,031
340,500	0,031
340,600	0,031
340,700	0,031
340,800	0,031
340,900	0,031
341,000	0,036
341,100	0,031
341,200	0,031
341,300	0,036
341,400	0,036
341,500	0,031
341,600	0,031
341,700	0,031
341,800	0,031
341,900	0,031
342,000	0,031
342,100	0,036
342,200	0,031
342,300	0,031
342,400	0,031
342,500	0,036
342,600	0,031
342,700	0,031
342,800	0,031
342,900	0,031
343,000	0,031
343,100	0,031
343,200	0,031
343,300	0,036
343,400	0,031
343,500	0,031
343,600	0,031
343,700	0,031
343,800	0,031
343,900	0,036
344,000	0,036
344,100	0,031
344,200	0,031
344,300	0,031
344,400	0,031
344,500	0,031
344,600	0,031
344,700	0,031
344,800	0,031
344,900	0,031
345,000	0,031
345,100	0,031
345,200	0,031
345,300	0,031
345,400	0,031
345,500	0,031
345,600	0,031
345,700	0,031
345,800	0,031
345,900	0,031
346,000	0,031
346,100	0,031
346,200	0,031
346,300	0,031
346,400	0,031
346,500	0,031
346,600	0,031
346,700	0,031
346,800	0,031
346,900	0,031
347,000	0,031
347,100	0,031
347,200	0,031
347,300	0,031
347,400	0,031
347,500	0,031
347,600	0,031
347,700	0,031
347,800	0,031
347,900	0,031
348,000	0,031
348,100	0,031
348,200	0,031
348,300	0,036
348,400	0,031
348,500	0,031
348,600	0,031
348,700	0,031
348,800	0,031
348,900	0,031
349,000	0,031
349,100	0,031
349,200	0,031
349,300	0,031
349,400	0,031
349,500	0,036
349,600	0,031
349,700	0,031
349,800	0,031
349,900	0,031
350,000	0,031
350,100	0,031
350,200	0,031
350,300	0,031
350,400	0,031
350,500	0,031
350,600	0,031
350,700	0,031
350,800	0,031
350,900	0,031
351,000	0,031
351,100	0,031
351,200	0,031
351,300	0,031
351,400	0,031
351,500	0,031
351,600	0,031
351,700	0,031
351,800	0,031
351,900	0,031
352,000	0,031
352,100	0,031
352,200	0,031
352,300	0,031
352,400	0,031
352,500	0,026
352,600	0,031
352,700	0,031
352,800	0,031
352,900	0,031
353,000	0,031
353,100	0,031
353,200	0,031
353,300	0,031
353,400	0,031
353,500	0,031
353,600	0,031
353,700	0,031
353,800	0,031
353,900	0,031
354,000	0,031
354,100	0,031
354,200	0,031
354,300	0,031
354,400	0,031
354,500	0,031
354,600	0,031
354,700	0,031
354,800	0,031
354,900	0,031
355,000	0,031
355,100	0,031
355,200	0,031
355,300	0,031
355,400	0,026
355,500	0,031
355,600	0,031
355,700	0,031
355,800	0,031
355,900	0,031
356,000	0,031
356,100	0,031
356,200	0,031
356,300	0,031
356,400	0,031
356,500	0,026
356,600	0,031
356,700	0,031
356,800	0,026
356,900	0,031
357,000	0,031
357,100	0,031
357,200	0,031
357,300	0,031
357,400	0,031
357,500	0,031
357,600	0,031
357,700	0,026
357,800	0,031
357,900	0,031
358,000	0,031
358,100	0,031
358,200	0,031
358,300	0,031
358,400	0,031
358,500	0,031
358,600	0,031
358,700	0,031
358,800	0,031
358,900	0,031
359,000	0,031
359,100	0,031
359,200	0,031
359,300	0,031
359,400	0,031
359,500	0,031
359,600	0,031
359,700	0,031
359,800	0,031
359,900	0,031
360,000	0,031
360,100	0,031
360,200	0,031
360,300	0,031
360,400	0,031
360,500	0,031
360,600	0,031
360,700	0,031
360,800	0,031
360,900	0,031
361,000	0,031
361,100	0,031
361,200	0,031
361,300	0,031
361,400	0,031
361,500	0,031
361,600	0,026
361,700	0,031
361,800	0,031
361,900	0,031
362,000	0,031
362,100	0,031
362,200	0,031
362,300	0,026
362,400	0,031
362,500	0,031
362,600	0,026
362,700	0,031
362,800	0,031
362,900	0,031
363,000	0,026
363,100	0,031
363,200	0,026
363,300	0,031
363,400	0,031
363,500	0,031
363,600	0,031
363,700	0,031
363,800	0,031
363,900	0,031
364,000	0,031
364,100	0,026
364,200	0,031
364,300	0,031
364,400	0,026
364,500	0,026
364,600	0,031
364,700	0,031
364,800	0,026
364,900	0,031
365,000	0,031
365,100	0,031
365,200	0,026
365,300	0,026
365,400	0,031
365,500	0,026
365,600	0,031
365,700	0,031
365,800	0,031
365,900	0,031
366,000	0,031
366,100	0,031
366,200	0,031
366,300	0,031
366,400	0,031
366,500	0,031
366,600	0,031
366,700	0,031
366,800	0,031
366,900	0,031
367,000	0,031
367,100	0,031
367,200	0,026
367,300	0,031
367,400	0,031
367,500	0,026
367,600	0,031
367,700	0,031
367,800	0,031
367,900	0,031
368,000	0,031
368,100	0,026
368,200	0,031
368,300	0,031
368,400	0,031
368,500	0,031
368,600	0,031
368,700	0,031
368,800	0,031
368,900	0,031
369,000	0,031
369,100	0,031
369,200	0,026
369,300	0,031
369,400	0,026
369,500	0,031
369,600	0,031
369,700	0,031
369,800	0,031
369,900	0,031
370,000	0,031
370,100	0,031
370,200	0,026
370,300	0,031
370,400	0,031
370,500	0,031
370,600	0,026
370,700	0,026
370,800	0,031
370,900	0,031
371,000	0,031
371,100	0,026
371,200	0,031
371,300	0,031
371,400	0,031
371,500	0,026
371,600	0,031
371,700	0,026
371,800	0,031
371,900	0,031
372,000	0,031
372,100	0,026
372,200	0,031
372,300	0,031
372,400	0,031
372,500	0,031
372,600	0,031
372,700	0,031
372,800	0,031
372,900	0,031
373,000	0,031
373,100	0,026
373,200	0,031
373,300	0,031
373,400	0,031
373,500	0,031
373,600	0,026
373,700	0,031
373,800	0,031
373,900	0,031
374,000	0,031
374,100	0,031
374,200	0,026
374,300	0,031
374,400	0,031
374,500	0,031
374,600	0,031
374,700	0,031
374,800	0,031
374,900	0,031
375,000	0,031
375,100	0,031
375,200	0,026
375,300	0,026
375,400	0,031
375,500	0,031
375,600	0,026
375,700	0,031
375,800	0,026
375,900	0,031
376,000	0,031
376,100	0,026
376,200	0,031
376,300	0,031
376,400	0,031
376,500	0,026
376,600	0,031
376,700	0,031
376,800	0,031
376,900	0,031
377,000	0,031
377,100	0,031
377,200	0,031
377,300	0,026
377,400	0,026
377,500	0,031
377,600	0,026
377,700	0,026
377,800	0,031
377,900	0,031
378,000	0,026
378,100	0,031
378,200	0,031
378,300	0,031
378,400	0,031
378,500	0,026
378,600	0,031
378,700	0,031
378,800	0,031
378,900	0,031
379,000	0,031
379,100	0,026
379,200	0,031
379,300	0,026
379,400	0,026
379,500	0,026
379,600	0,031
379,700	0,031
379,800	0,026
379,900	0,026
380,000	0,031
380,100	0,026
380,200	0,026
380,300	0,031
380,400	0,031
380,500	0,031
380,600	0,031
380,700	0,031
380,800	0,026
380,900	0,031
381,000	0,026
381,100	0,031
381,200	0,026
381,300	0,026
381,400	0,031
381,500	0,031
381,600	0,031
381,700	0,026
381,800	0,026
381,900	0,031
382,000	0,026
382,100	0,031
382,200	0,026
382,300	0,026
382,400	0,026
382,500	0,026
382,600	0,031
382,700	0,026
382,800	0,031
382,900	0,026
383,000	0,031
383,100	0,031
383,200	0,031
383,300	0,031
383,400	0,026
383,500	0,031
383,600	0,031
383,700	0,026
383,800	0,026
383,900	0,031
384,000	0,026
384,100	0,026
384,200	0,026
384,300	0,026
384,400	0,031
384,500	0,026
384,600	0,031
384,700	0,031
384,800	0,031
384,900	0,031
385,000	0,026
385,100	0,031
385,200	0,031
385,300	0,031
385,400	0,026
385,500	0,026
385,600	0,031
385,700	0,031
385,800	0,026
385,900	0,026
386,000	0,026
386,100	0,026
386,200	0,031
386,300	0,026
386,400	0,031
386,500	0,026
386,600	0,026
386,700	0,031
386,800	0,031
386,900	0,031
387,000	0,026
387,100	0,026
387,200	0,026
387,300	0,026
387,400	0,031
387,500	0,031
387,600	0,031
387,700	0,031
387,800	0,031
387,900	0,031
388,000	0,031
388,100	0,026
388,200	0,031
388,300	0,026
388,400	0,031
388,500	0,031
388,600	0,026
388,700	0,026
388,800	0,031
388,900	0,031
389,000	0,031
389,100	0,031
389,200	0,031
389,300	0,026
389,400	0,026
389,500	0,026
389,600	0,026
389,700	0,026
389,800	0,031
389,900	0,026
390,000	0,026
390,100	0,026
390,200	0,026
390,300	0,026
390,400	0,026
390,500	0,026
390,600	0,026
390,700	0,026
390,800	0,026
390,900	0,026
391,000	0,026
391,100	0,026
391,200	0,031
391,300	0,031
391,400	0,031
391,500	0,026
391,600	0,031
391,700	0,026
391,800	0,031
391,900	0,026
392,000	0,026
392,100	0,031
392,200	0,031
392,300	0,031
392,400	0,031
392,500	0,026
392,600	0,026
392,700	0,031
392,800	0,026
392,900	0,026
393,000	0,026
393,100	0,026
393,200	0,026
393,300	0,026
393,400	0,026
393,500	0,026
393,600	0,026
393,700	0,026
393,800	0,026
393,900	0,026
394,000	0,026
394,100	0,026
394,200	0,026
394,300	0,031
394,400	0,026
394,500	0,026
394,600	0,026
394,700	0,031
394,800	0,026
394,900	0,026
395,000	0,026
395,100	0,026
395,200	0,031
395,300	0,026
395,400	0,031
395,500	0,031
395,600	0,026
395,700	0,026
395,800	0,026
395,900	0,031
396,000	0,026
396,100	0,031
396,200	0,031
396,300	0,031
396,400	0,031
396,500	0,026
396,600	0,026
396,700	0,026
396,800	0,026
396,900	0,031
397,000	0,026
397,100	0,026
397,200	0,026
397,300	0,031
397,400	0,026
397,500	0,026
397,600	0,026
397,700	0,026
397,800	0,026
397,900	0,031
398,000	0,026
398,100	0,026
398,200	0,026
398,300	0,031
398,400	0,026
398,500	0,026
398,600	0,026
398,700	0,031
398,800	0,026
398,900	0,026
399,000	0,031
399,100	0,026
399,200	0,026
399,300	0,031
399,400	0,026
399,500	0,031
399,600	0,026
399,700	0,031
399,800	0,031
399,900	0,026
400,000	0,026
400,100	0,026
400,200	0,031
400,300	0,026
400,400	0,031
400,500	0,026
400,600	0,026
400,700	0,026
400,800	0,026
400,900	0,026
401,000	0,026
401,100	0,026
401,200	0,031
401,300	0,026
401,400	0,031
401,500	0,026
401,600	0,026
401,700	0,026
401,800	0,026
401,900	0,026
402,000	0,026
402,100	0,026
402,200	0,026
402,300	0,031
402,400	0,026
402,500	0,026
402,600	0,031
402,700	0,026
402,800	0,031
402,900	0,031
403,000	0,026
403,100	0,026
403,200	0,026
403,300	0,026
403,400	0,031
403,500	0,026
403,600	0,031
403,700	0,026
403,800	0,026
403,900	0,026
404,000	0,026
404,100	0,026
404,200	0,026
404,300	0,026
404,400	0,031
404,500	0,026
404,600	0,031
404,700	0,026
404,800	0,026
404,900	0,026
405,000	0,026
405,100	0,031
405,200	0,031
405,300	0,026
405,400	0,026
405,500	0,026
405,600	0,026
405,700	0,026
405,800	0,026
405,900	0,031
406,000	0,026
406,100	0,026
406,200	0,026
406,300	0,026
406,400	0,031
406,500	0,031
406,600	0,026
406,700	0,026
406,800	0,026
406,900	0,031
407,000	0,026
407,100	0,026
407,200	0,026
407,300	0,026
407,400	0,026
407,500	0,026
407,600	0,026
407,700	0,026
407,800	0,026
407,900	0,026
408,000	0,026
408,100	0,026
408,200	0,026
408,300	0,026
408,400	0,026
408,500	0,031
408,600	0,026
408,700	0,031
408,800	0,026
408,900	0,026
409,000	0,026
409,100	0,026
409,200	0,026
409,300	0,026
409,400	0,026
409,500	0,026
409,600	0,026
409,700	0,026
409,800	0,031
409,900	0,031
410,000	0,026
410,100	0,026
410,200	0,026
410,300	0,026
410,400	0,026
410,500	0,026
410,600	0,026
410,700	0,026
410,800	0,026
410,900	0,026
411,000	0,026
411,100	0,031
411,200	0,026
411,300	0,026
411,400	0,031
411,500	0,026
411,600	0,031
411,700	0,026
411,800	0,026
411,900	0,031
412,000	0,031
412,100	0,026
412,200	0,026
412,300	0,026
412,400	0,031
412,500	0,031
412,600	0,026
412,700	0,026
412,800	0,026
412,900	0,026
413,000	0,026
413,100	0,026
413,200	0,026
413,300	0,026
413,400	0,026
413,500	0,026
413,600	0,026
413,700	0,026
413,800	0,026
413,900	0,026
414,000	0,026
414,100	0,031
414,200	0,031
414,300	0,026
414,400	0,026
414,500	0,026
414,600	0,026
414,700	0,031
414,800	0,026
414,900	0,026
415,000	0,031
415,100	0,026
415,200	0,026
415,300	0,026
415,400	0,031
415,500	0,031
415,600	0,026
415,700	0,026
415,800	0,031
415,900	0,026
416,000	0,026
416,100	0,026
416,200	0,026
416,300	0,026
416,400	0,026
416,500	0,026
416,600	0,031
416,700	0,031
416,800	0,031
416,900	0,026
417,000	0,026
417,100	0,026
417,200	0,026
417,300	0,026
417,400	0,026
417,500	0,031
417,600	0,031
