Voltage, Run #1
Time ( s )	Voltage ( V )
0,000	0,026
0,100	0,026
0,200	0,026
0,300	0,026
0,400	0,026
0,500	0,026
0,600	0,026
0,700	0,031
0,800	0,026
0,900	0,026
1,000	0,026
1,100	0,031
1,200	0,026
1,300	0,026
1,400	0,026
1,500	0,026
1,600	0,026
1,700	0,026
1,800	0,026
1,900	0,026
2,000	0,026
2,100	0,026
2,200	0,026
2,300	0,026
2,400	0,026
2,500	0,026
2,600	0,026
2,700	0,026
2,800	0,026
2,900	0,026
3,000	0,021
3,100	0,026
3,200	0,026
3,300	0,026
3,400	0,026
3,500	0,026
3,600	0,026
3,700	0,026
3,800	0,026
3,900	0,026
4,000	0,026
4,100	0,026
4,200	0,026
4,300	0,026
4,400	0,026
4,500	0,026
4,600	0,026
4,700	0,026
4,800	0,026
4,900	0,026
5,000	0,026
5,100	0,026
5,200	0,026
5,300	0,026
5,400	0,026
5,500	0,026
5,600	0,026
5,700	0,026
5,800	0,026
5,900	0,026
6,000	0,026
6,100	0,026
6,200	0,026
6,300	0,026
6,400	0,026
6,500	0,026
6,600	0,026
6,700	0,026
6,800	0,026
6,900	0,026
7,000	0,026
7,100	0,026
7,200	0,021
7,300	0,026
7,400	0,026
7,500	0,026
7,600	0,026
7,700	0,026
7,800	0,026
7,900	0,026
8,000	0,026
8,100	0,026
8,200	0,031
8,300	0,026
8,400	0,026
8,500	0,026
8,600	0,026
8,700	0,026
8,800	0,026
8,900	0,026
9,000	0,026
9,100	0,026
9,200	0,026
9,300	0,026
9,400	0,026
9,500	0,026
9,600	0,026
9,700	0,026
9,800	0,026
9,900	0,026
10,000	0,026
10,100	0,026
10,200	0,026
10,300	0,026
10,400	0,021
10,500	0,026
10,600	0,026
10,700	0,031
10,800	0,026
10,900	0,026
11,000	0,026
11,100	0,026
11,200	0,026
11,300	0,026
11,400	0,026
11,500	0,026
11,600	0,026
11,700	0,026
11,800	0,026
11,900	0,026
12,000	0,026
12,100	0,026
12,200	0,026
12,300	0,026
12,400	0,026
12,500	0,026
12,600	0,026
12,700	0,026
12,800	0,026
12,900	0,026
13,000	0,021
13,100	0,026
13,200	0,026
13,300	0,026
13,400	0,026
13,500	0,026
13,600	0,026
13,700	0,026
13,800	0,026
13,900	0,026
14,000	0,026
14,100	0,026
14,200	0,026
14,300	0,021
14,400	0,026
14,500	0,026
14,600	0,026
14,700	0,026
14,800	0,026
14,900	0,026
15,000	0,026
15,100	0,026
15,200	0,026
15,300	0,026
15,400	0,031
15,500	0,026
15,600	0,026
15,700	0,031
15,800	0,026
15,900	0,026
16,000	0,026
16,100	0,026
16,200	0,026
16,300	0,026
16,400	0,026
16,500	0,026
16,600	0,026
16,700	0,026
16,800	0,026
16,900	0,026
17,000	0,026
17,100	0,026
17,200	0,026
17,300	0,026
17,400	0,026
17,500	0,031
17,600	0,026
17,700	0,026
17,800	0,026
17,900	0,031
18,000	0,026
18,100	0,026
18,200	0,026
18,300	0,026
18,400	0,026
18,500	0,026
18,600	0,026
18,700	0,026
18,800	0,026
18,900	0,026
19,000	0,026
19,100	0,026
19,200	0,026
19,300	0,026
19,400	0,026
19,500	0,026
19,600	0,026
19,700	0,026
19,800	0,026
19,900	0,026
20,000	0,026
20,100	0,026
20,200	0,026
20,300	0,026
20,400	0,026
20,500	0,026
20,600	0,026
20,700	0,026
20,800	0,026
20,900	0,026
21,000	0,026
21,100	0,026
21,200	0,026
21,300	0,026
21,400	0,026
21,500	0,026
21,600	0,026
21,700	0,026
21,800	0,026
21,900	0,031
22,000	0,026
22,100	0,026
22,200	0,026
22,300	0,026
22,400	0,026
22,500	3,290
22,600	3,301
22,700	3,306
22,800	3,316
22,900	3,316
23,000	3,326
23,100	3,326
23,200	3,332
23,300	3,337
23,400	3,342
23,500	3,347
23,600	3,342
23,700	3,347
23,800	3,347
23,900	3,352
24,000	3,352
24,100	3,352
24,200	3,357
24,300	3,357
24,400	3,357
24,500	3,363
24,600	3,363
24,700	3,363
24,800	3,363
24,900	3,363
25,000	3,368
25,100	3,368
25,200	3,368
25,300	3,368
25,400	3,368
25,500	3,368
25,600	3,373
25,700	3,368
25,800	3,373
25,900	3,368
26,000	3,373
26,100	3,373
26,200	3,373
26,300	3,373
26,400	3,373
26,500	3,373
26,600	3,378
26,700	3,378
26,800	3,378
26,900	3,378
27,000	3,378
27,100	3,378
27,200	3,378
27,300	3,383
27,400	3,378
27,500	3,378
27,600	3,378
27,700	3,378
27,800	3,378
27,900	3,383
28,000	3,383
28,100	3,383
28,200	3,383
28,300	3,383
28,400	3,383
28,500	3,383
28,600	3,383
28,700	3,383
28,800	3,383
28,900	3,388
29,000	3,388
29,100	3,388
29,200	3,388
29,300	3,388
29,400	3,388
29,500	3,388
29,600	3,388
29,700	3,388
29,800	3,388
29,900	3,388
30,000	3,388
30,100	3,394
30,200	3,394
30,300	3,388
30,400	3,394
30,500	3,394
30,600	3,394
30,700	3,394
30,800	3,394
30,900	3,394
31,000	3,394
31,100	3,394
31,200	3,394
31,300	3,399
31,400	3,399
31,500	3,399
31,600	3,399
31,700	3,399
31,800	3,399
31,900	3,399
32,000	3,399
32,100	3,399
32,200	3,399
32,300	3,399
32,400	3,399
32,500	3,399
32,600	3,399
32,700	3,404
32,800	3,399
32,900	3,404
33,000	3,404
33,100	3,404
33,200	3,404
33,300	3,404
33,400	3,404
33,500	3,404
33,600	3,409
33,700	3,404
33,800	3,409
33,900	3,409
34,000	3,404
34,100	3,409
34,200	3,409
34,300	3,409
34,400	3,409
34,500	3,409
34,600	3,409
34,700	3,404
34,800	3,409
34,900	3,409
35,000	3,409
35,100	3,414
35,200	3,414
35,300	3,414
35,400	3,409
35,500	3,414
35,600	3,414
35,700	3,414
35,800	3,414
35,900	3,414
36,000	3,414
36,100	3,414
36,200	3,414
36,300	3,414
36,400	3,419
36,500	3,414
36,600	3,414
36,700	3,414
36,800	3,414
36,900	3,414
37,000	3,419
37,100	3,419
37,200	3,419
37,300	3,419
37,400	3,419
37,500	3,419
37,600	3,419
37,700	3,419
37,800	3,419
37,900	3,419
38,000	3,419
38,100	3,419
38,200	3,424
38,300	3,419
38,400	3,424
38,500	3,424
38,600	3,424
38,700	3,419
38,800	3,424
38,900	3,419
39,000	3,424
39,100	3,424
39,200	3,424
39,300	3,424
39,400	3,424
39,500	3,424
39,600	3,424
39,700	3,430
39,800	3,424
39,900	3,424
40,000	3,430
40,100	3,430
40,200	3,424
40,300	3,424
40,400	3,424
40,500	3,430
40,600	3,430
40,700	3,430
40,800	3,430
40,900	3,430
41,000	3,430
41,100	3,430
41,200	3,430
41,300	3,430
41,400	3,435
41,500	3,430
41,600	3,430
41,700	3,435
41,800	3,435
41,900	3,430
42,000	3,435
42,100	3,430
42,200	3,435
42,300	3,435
42,400	3,435
42,500	3,435
42,600	3,435
42,700	3,440
42,800	3,440
42,900	3,440
43,000	3,435
43,100	3,435
43,200	3,435
43,300	3,435
43,400	3,440
43,500	3,435
43,600	3,440
43,700	3,440
43,800	3,440
43,900	3,440
44,000	3,440
44,100	3,440
44,200	3,440
44,300	3,440
44,400	3,440
44,500	3,440
44,600	3,440
44,700	3,440
44,800	3,440
44,900	3,440
45,000	3,445
45,100	3,445
45,200	3,440
45,300	3,440
45,400	3,445
45,500	3,440
45,600	3,445
45,700	3,450
45,800	3,445
45,900	3,440
46,000	3,445
46,100	3,445
46,200	3,445
46,300	3,450
46,400	3,450
46,500	3,445
46,600	3,445
46,700	3,450
46,800	3,450
46,900	3,445
47,000	3,445
47,100	3,445
47,200	3,445
47,300	3,450
47,400	3,450
47,500	3,450
47,600	3,450
47,700	3,450
47,800	3,450
47,900	3,450
48,000	3,450
48,100	3,450
48,200	3,450
48,300	3,450
48,400	3,450
48,500	3,450
48,600	3,455
48,700	3,455
48,800	3,450
48,900	3,450
49,000	3,455
49,100	3,455
49,200	3,455
49,300	3,450
49,400	3,455
49,500	3,455
49,600	3,455
49,700	3,450
49,800	3,455
49,900	3,455
50,000	3,461
50,100	3,455
50,200	3,455
50,300	3,455
50,400	3,455
50,500	3,461
50,600	3,461
50,700	3,461
50,800	3,455
50,900	3,461
51,000	3,455
51,100	3,455
51,200	3,461
51,300	3,455
51,400	3,461
51,500	3,461
51,600	3,461
51,700	3,461
51,800	3,461
51,900	3,461
52,000	3,461
52,100	3,461
52,200	3,461
52,300	3,461
52,400	3,461
52,500	3,461
52,600	3,461
52,700	3,461
52,800	3,461
52,900	3,461
53,000	3,461
53,100	3,461
53,200	3,466
53,300	3,461
53,400	3,466
53,500	3,466
53,600	3,466
53,700	3,466
53,800	3,461
53,900	3,466
54,000	3,466
54,100	3,466
54,200	3,466
54,300	3,466
54,400	3,466
54,500	3,466
54,600	3,461
54,700	3,466
54,800	3,471
54,900	3,466
55,000	3,466
55,100	3,471
55,200	3,471
55,300	3,466
55,400	3,466
55,500	3,466
55,600	3,471
55,700	3,471
55,800	3,471
55,900	3,471
56,000	3,471
56,100	3,471
56,200	3,471
56,300	3,471
56,400	3,466
56,500	3,471
56,600	3,471
56,700	3,471
56,800	3,471
56,900	3,471
57,000	3,471
57,100	3,471
57,200	3,471
57,300	3,471
57,400	3,471
57,500	3,471
57,600	3,471
57,700	3,476
57,800	3,471
57,900	3,471
58,000	3,471
58,100	3,471
58,200	3,476
58,300	3,471
58,400	3,476
58,500	3,476
58,600	3,476
58,700	3,476
58,800	3,476
58,900	3,476
59,000	3,476
59,100	3,476
59,200	3,476
59,300	3,476
59,400	3,476
59,500	3,476
59,600	3,476
59,700	3,476
59,800	3,476
59,900	3,476
60,000	3,476
60,100	3,481
60,200	3,481
60,300	3,476
60,400	3,481
60,500	3,476
60,600	3,476
60,700	3,476
60,800	3,481
60,900	3,481
61,000	3,481
61,100	3,481
61,200	3,481
61,300	3,481
61,400	3,481
61,500	3,481
61,600	3,481
61,700	3,481
61,800	3,481
61,900	3,481
62,000	3,481
62,100	3,481
62,200	3,481
62,300	3,481
62,400	3,481
62,500	3,481
62,600	3,481
62,700	3,481
62,800	3,481
62,900	3,481
63,000	3,486
63,100	3,481
63,200	3,481
63,300	3,481
63,400	3,486
63,500	3,481
63,600	3,486
63,700	3,481
63,800	3,486
63,900	3,486
64,000	3,486
64,100	3,486
64,200	3,486
64,300	3,486
64,400	3,486
64,500	3,486
64,600	3,486
64,700	3,486
64,800	3,486
64,900	3,486
65,000	3,486
65,100	3,486
65,200	3,486
65,300	3,486
65,400	3,486
65,500	3,486
65,600	3,486
65,700	3,486
65,800	3,486
65,900	3,491
66,000	3,486
66,100	3,491
66,200	3,491
66,300	3,491
66,400	3,491
66,500	3,486
66,600	3,491
66,700	3,491
66,800	3,491
66,900	3,491
67,000	3,491
67,100	3,491
67,200	3,491
67,300	3,491
67,400	3,491
67,500	3,491
67,600	3,491
67,700	3,491
67,800	3,491
67,900	3,491
68,000	3,491
68,100	3,491
68,200	3,497
68,300	3,491
68,400	3,497
68,500	3,491
68,600	3,497
68,700	3,491
68,800	3,491
68,900	3,491
69,000	3,491
69,100	3,491
69,200	3,491
69,300	3,497
69,400	3,491
69,500	3,491
69,600	3,497
69,700	3,497
69,800	3,497
69,900	3,491
70,000	3,497
70,100	3,497
70,200	3,491
70,300	3,497
70,400	3,497
70,500	3,491
70,600	3,497
70,700	3,502
70,800	3,497
70,900	3,497
71,000	3,497
71,100	3,497
71,200	3,497
71,300	3,497
71,400	3,497
71,500	3,497
71,600	3,497
71,700	3,497
71,800	3,497
71,900	3,497
72,000	3,502
72,100	3,497
72,200	3,502
72,300	3,497
72,400	3,497
72,500	3,497
72,600	3,502
72,700	3,497
72,800	3,497
72,900	3,497
73,000	3,497
73,100	3,497
73,200	3,497
73,300	3,502
73,400	3,502
73,500	3,502
73,600	3,497
73,700	3,502
73,800	3,497
73,900	3,502
74,000	3,502
74,100	3,502
74,200	3,502
74,300	3,502
74,400	3,502
74,500	3,502
74,600	3,502
74,700	3,502
74,800	3,502
74,900	3,502
75,000	3,502
75,100	3,502
75,200	3,502
75,300	3,502
75,400	3,502
75,500	3,502
75,600	3,502
75,700	3,502
75,800	3,502
75,900	3,502
76,000	3,502
76,100	3,497
76,200	3,507
76,300	3,502
76,400	3,502
76,500	3,507
76,600	3,502
76,700	3,507
76,800	3,507
76,900	3,507
77,000	3,502
77,100	3,507
77,200	3,502
77,300	3,502
77,400	3,502
77,500	3,502
77,600	3,502
77,700	3,507
77,800	3,502
77,900	3,507
78,000	3,507
78,100	3,507
78,200	3,507
78,300	3,507
78,400	3,507
78,500	3,507
78,600	3,507
78,700	3,507
78,800	3,507
78,900	3,507
79,000	3,507
79,100	3,507
79,200	3,507
79,300	3,507
79,400	3,507
79,500	3,507
79,600	3,507
79,700	3,507
79,800	3,507
79,900	3,507
80,000	3,507
80,100	3,507
80,200	3,512
80,300	3,507
80,400	3,507
80,500	3,507
80,600	3,512
80,700	3,507
80,800	3,512
80,900	3,512
81,000	3,512
81,100	3,512
81,200	3,507
81,300	3,512
81,400	3,507
81,500	3,507
81,600	3,512
81,700	3,512
81,800	3,512
81,900	3,512
82,000	3,512
82,100	3,507
82,200	3,512
82,300	3,507
82,400	3,512
82,500	3,512
82,600	3,512
82,700	3,512
82,800	3,512
82,900	3,512
83,000	3,512
83,100	3,512
83,200	3,512
83,300	3,512
83,400	3,512
83,500	3,512
83,600	3,512
83,700	3,512
83,800	3,512
83,900	3,512
84,000	3,512
84,100	3,512
84,200	3,512
84,300	3,512
84,400	3,512
84,500	3,512
84,600	3,512
84,700	3,512
84,800	3,512
84,900	3,512
85,000	3,512
85,100	3,517
85,200	3,512
85,300	3,517
85,400	3,512
85,500	3,517
85,600	3,517
85,700	3,512
85,800	3,517
85,900	3,512
86,000	3,512
86,100	3,512
86,200	3,517
86,300	3,517
86,400	3,517
86,500	3,517
86,600	3,512
86,700	3,512
86,800	3,512
86,900	3,517
87,000	3,517
87,100	3,517
87,200	3,517
87,300	3,517
87,400	3,517
87,500	3,517
87,600	3,512
87,700	3,517
87,800	3,517
87,900	3,517
88,000	3,517
88,100	3,517
88,200	3,517
88,300	3,517
88,400	3,517
88,500	3,517
88,600	3,517
88,700	3,517
88,800	3,517
88,900	3,512
89,000	3,517
89,100	3,517
89,200	3,517
89,300	3,517
89,400	3,517
89,500	3,517
89,600	3,517
89,700	3,517
89,800	3,517
89,900	3,517
90,000	3,517
90,100	3,517
90,200	3,522
90,300	3,517
90,400	3,522
90,500	3,522
90,600	3,522
90,700	3,522
90,800	3,517
90,900	3,517
91,000	3,517
91,100	3,517
91,200	3,517
91,300	3,517
91,400	3,517
91,500	3,517
91,600	3,517
91,700	3,522
91,800	3,522
91,900	3,517
92,000	3,522
92,100	3,522
92,200	3,522
92,300	3,517
92,400	3,517
92,500	3,522
92,600	3,522
92,700	3,522
92,800	3,522
92,900	3,522
93,000	3,517
93,100	3,522
93,200	3,522
93,300	3,522
93,400	3,517
93,500	3,522
93,600	3,522
93,700	3,522
93,800	3,522
93,900	3,522
94,000	3,522
94,100	3,522
94,200	3,522
94,300	3,522
94,400	3,522
94,500	3,528
94,600	3,522
94,700	3,522
94,800	3,522
94,900	3,522
95,000	3,522
95,100	3,522
95,200	3,522
95,300	3,528
95,400	3,528
95,500	3,522
95,600	3,522
95,700	3,522
95,800	3,522
95,900	3,522
96,000	3,522
96,100	3,522
96,200	3,522
96,300	3,528
96,400	3,522
96,500	3,522
96,600	3,522
96,700	3,528
96,800	3,528
96,900	3,522
97,000	3,522
97,100	3,528
97,200	3,522
97,300	3,522
97,400	3,528
97,500	3,522
97,600	3,528
97,700	3,528
97,800	3,522
97,900	3,522
98,000	3,528
98,100	3,528
98,200	3,522
98,300	3,528
98,400	3,528
98,500	3,528
98,600	3,528
98,700	3,522
98,800	3,522
98,900	3,522
99,000	3,528
99,100	3,528
99,200	3,522
99,300	3,528
99,400	3,528
99,500	3,528
99,600	3,528
99,700	3,528
99,800	3,528
99,900	3,528
100,000	3,528
100,100	3,528
100,200	3,528
100,300	3,528
100,400	3,522
100,500	3,522
100,600	3,528
100,700	3,528
100,800	3,528
100,900	3,528
101,000	3,528
101,100	3,528
101,200	3,528
101,300	3,528
101,400	3,528
101,500	3,528
101,600	3,528
101,700	3,533
101,800	3,528
101,900	3,528
102,000	3,522
102,100	3,528
102,200	3,528
102,300	3,528
102,400	3,528
102,500	3,528
102,600	3,528
102,700	3,528
102,800	3,533
102,900	3,528
103,000	3,528
103,100	3,528
103,200	3,533
103,300	3,528
103,400	3,533
103,500	3,528
103,600	3,528
103,700	3,528
103,800	3,528
103,900	3,528
104,000	3,528
104,100	3,533
104,200	3,533
104,300	3,528
104,400	3,528
104,500	3,533
104,600	3,533
104,700	3,528
104,800	3,528
104,900	3,533
105,000	3,533
105,100	3,528
105,200	3,533
105,300	3,528
105,400	3,528
105,500	3,528
105,600	3,533
105,700	3,528
105,800	3,533
105,900	3,533
106,000	3,528
106,100	3,533
106,200	3,528
106,300	3,528
106,400	3,528
106,500	3,533
106,600	3,528
106,700	3,533
106,800	3,533
106,900	3,533
107,000	3,528
107,100	3,533
107,200	3,533
107,300	3,533
107,400	3,533
107,500	3,533
107,600	3,533
107,700	3,533
107,800	3,533
107,900	3,533
108,000	3,533
108,100	3,533
108,200	3,533
108,300	3,533
108,400	3,533
108,500	3,533
108,600	3,533
108,700	3,533
108,800	3,533
108,900	3,533
109,000	3,533
109,100	3,533
109,200	3,533
109,300	3,533
109,400	3,533
109,500	3,533
109,600	3,533
109,700	3,533
109,800	3,533
109,900	3,533
110,000	3,533
110,100	3,533
110,200	3,533
110,300	3,533
110,400	3,533
110,500	3,533
110,600	3,533
110,700	3,533
110,800	3,533
110,900	3,533
111,000	3,533
111,100	3,533
111,200	3,533
111,300	3,533
111,400	3,538
111,500	3,533
111,600	3,533
111,700	3,533
111,800	3,533
111,900	3,533
112,000	3,533
112,100	3,533
112,200	3,533
112,300	3,533
112,400	3,533
112,500	3,533
112,600	3,538
112,700	3,533
112,800	3,533
112,900	3,533
113,000	3,533
113,100	3,538
113,200	3,538
113,300	3,533
113,400	3,533
113,500	3,533
113,600	3,533
113,700	3,533
113,800	3,533
113,900	3,538
114,000	3,533
114,100	3,533
114,200	3,533
114,300	3,538
114,400	3,533
114,500	3,533
114,600	3,533
114,700	3,533
114,800	3,538
114,900	3,538
115,000	3,538
115,100	3,538
115,200	3,533
115,300	3,538
115,400	3,538
115,500	3,538
115,600	3,533
115,700	3,538
115,800	3,538
115,900	3,538
116,000	3,538
116,100	3,538
116,200	3,533
116,300	3,538
116,400	3,538
116,500	3,538
116,600	3,538
116,700	3,538
116,800	3,538
116,900	3,538
117,000	3,538
117,100	3,538
117,200	3,538
117,300	3,538
117,400	3,538
117,500	3,538
117,600	3,538
117,700	3,538
117,800	3,538
117,900	3,538
118,000	3,538
118,100	3,538
118,200	3,538
118,300	3,538
118,400	3,538
118,500	3,538
118,600	3,538
118,700	3,533
118,800	3,538
118,900	3,538
119,000	3,538
119,100	3,538
119,200	3,538
119,300	3,538
119,400	3,538
119,500	3,538
119,600	3,538
119,700	3,538
119,800	3,538
119,900	3,538
120,000	1,331
120,100	1,300
120,200	1,279
120,300	1,253
120,400	1,238
120,500	0,856
120,600	0,841
120,700	0,825
120,800	0,815
120,900	0,805
121,000	0,794
121,100	0,784
121,200	0,779
121,300	0,768
121,400	0,763
121,500	0,753
121,600	0,748
121,700	0,748
121,800	0,737
121,900	0,732
122,000	0,732
122,100	0,727
122,200	0,722
122,300	0,717
122,400	0,717
122,500	0,712
122,600	0,707
122,700	0,707
122,800	0,707
122,900	0,701
123,000	0,701
123,100	0,696
123,200	0,696
123,300	0,691
123,400	0,691
123,500	0,686
123,600	0,686
123,700	0,686
123,800	0,681
123,900	0,681
124,000	0,676
124,100	0,676
124,200	0,676
124,300	0,670
124,400	0,670
124,500	0,670
124,600	0,665
124,700	0,665
124,800	0,665
124,900	0,660
125,000	0,665
125,100	0,660
125,200	0,655
125,300	0,655
125,400	0,655
125,500	0,650
125,600	0,655
125,700	0,650
125,800	0,650
125,900	0,650
126,000	0,645
126,100	0,650
126,200	0,645
126,300	0,640
126,400	0,645
126,500	0,640
126,600	0,640
126,700	0,640
126,800	0,640
126,900	0,634
127,000	0,634
127,100	0,634
127,200	0,629
127,300	0,629
127,400	0,629
127,500	0,629
127,600	0,624
127,700	0,624
127,800	0,624
127,900	0,619
128,000	0,619
128,100	0,619
128,200	0,619
128,300	0,614
128,400	0,614
128,500	0,614
128,600	0,614
128,700	0,614
128,800	0,609
128,900	0,609
129,000	0,609
129,100	0,603
129,200	0,603
129,300	0,603
129,400	0,598
129,500	0,598
129,600	0,598
129,700	0,598
129,800	0,598
129,900	0,593
130,000	0,593
130,100	0,593
130,200	0,593
130,300	0,588
130,400	0,588
130,500	0,588
130,600	0,583
130,700	0,583
130,800	0,583
130,900	0,583
131,000	0,583
131,100	0,583
131,200	0,578
131,300	0,578
131,400	0,578
131,500	0,578
131,600	0,578
131,700	0,572
131,800	0,572
131,900	0,572
132,000	0,572
132,100	0,567
132,200	0,567
132,300	0,567
132,400	0,567
132,500	0,567
132,600	0,562
132,700	0,562
132,800	0,562
132,900	0,562
133,000	0,562
133,100	0,557
133,200	0,557
133,300	0,557
133,400	0,557
133,500	0,552
133,600	0,552
133,700	0,552
133,800	0,552
133,900	0,547
134,000	0,547
134,100	0,547
134,200	0,547
134,300	0,542
134,400	0,547
134,500	0,542
134,600	0,542
134,700	0,542
134,800	0,542
134,900	0,536
135,000	0,542
135,100	0,536
135,200	0,531
135,300	0,531
135,400	0,531
135,500	0,531
135,600	0,531
135,700	0,526
135,800	0,526
135,900	0,521
136,000	0,526
136,100	0,521
136,200	0,521
136,300	0,521
136,400	0,521
136,500	0,521
136,600	0,516
136,700	0,516
136,800	0,516
136,900	0,511
137,000	0,511
137,100	0,511
137,200	0,511
137,300	0,511
137,400	0,511
137,500	0,511
137,600	0,511
137,700	0,505
137,800	0,505
137,900	0,505
138,000	0,505
138,100	0,500
138,200	0,505
138,300	0,500
138,400	0,500
138,500	0,500
138,600	0,500
138,700	0,500
138,800	0,495
138,900	0,495
139,000	0,495
139,100	0,495
139,200	0,495
139,300	0,490
139,400	0,490
139,500	0,490
139,600	0,490
139,700	0,485
139,800	0,485
139,900	0,485
140,000	0,485
140,100	0,485
140,200	0,485
140,300	0,485
140,400	0,480
140,500	0,480
140,600	0,480
140,700	0,474
140,800	0,480
140,900	0,474
141,000	0,474
141,100	0,474
141,200	0,474
141,300	0,469
141,400	0,469
141,500	0,469
141,600	0,469
141,700	0,469
141,800	0,469
141,900	0,464
142,000	0,464
142,100	0,464
142,200	0,459
142,300	0,464
142,400	0,459
142,500	0,459
142,600	0,459
142,700	0,459
142,800	0,459
142,900	0,459
143,000	0,459
143,100	0,459
143,200	0,454
143,300	0,454
143,400	0,449
143,500	0,449
143,600	0,449
143,700	0,449
143,800	0,444
143,900	0,449
144,000	0,449
144,100	0,449
144,200	0,444
144,300	0,444
144,400	0,444
144,500	0,444
144,600	0,438
144,700	0,438
144,800	0,438
144,900	0,438
145,000	0,433
145,100	0,433
145,200	0,433
145,300	0,433
145,400	0,433
145,500	0,433
145,600	0,433
145,700	0,433
145,800	0,428
145,900	0,428
146,000	0,428
146,100	0,428
146,200	0,428
146,300	0,423
146,400	0,428
146,500	0,423
146,600	0,423
146,700	0,423
146,800	0,418
146,900	0,423
147,000	0,423
147,100	0,418
147,200	0,418
147,300	0,418
147,400	0,418
147,500	0,418
147,600	0,413
147,700	0,413
147,800	0,413
147,900	0,413
148,000	0,407
148,100	0,407
148,200	0,407
148,300	0,407
148,400	0,407
148,500	0,407
148,600	0,407
148,700	0,407
148,800	0,407
148,900	0,402
149,000	0,402
149,100	0,402
149,200	0,402
149,300	0,397
149,400	0,397
149,500	0,397
149,600	0,397
149,700	0,397
149,800	0,397
149,900	0,392
150,000	0,397
150,100	0,397
150,200	0,392
150,300	0,392
150,400	0,392
150,500	0,392
150,600	0,392
150,700	0,387
150,800	0,387
150,900	0,387
151,000	0,387
151,100	0,387
151,200	0,387
151,300	0,387
151,400	0,387
151,500	0,382
151,600	0,387
151,700	0,382
151,800	0,382
151,900	0,382
152,000	0,382
152,100	0,382
152,200	0,376
152,300	0,376
152,400	0,376
152,500	0,376
152,600	0,376
152,700	0,376
152,800	0,376
152,900	0,371
153,000	0,376
153,100	0,371
153,200	0,371
153,300	0,371
153,400	0,366
153,500	0,366
153,600	0,366
153,700	0,366
153,800	0,366
153,900	0,366
154,000	0,366
154,100	0,366
154,200	0,361
154,300	0,361
154,400	0,366
154,500	0,361
154,600	0,356
154,700	0,356
154,800	0,361
154,900	0,361
155,000	0,351
155,100	0,356
155,200	0,356
155,300	0,356
155,400	0,356
155,500	0,356
155,600	0,351
155,700	0,351
155,800	0,351
155,900	0,351
156,000	0,351
156,100	0,351
156,200	0,346
156,300	0,351
156,400	0,351
156,500	0,346
156,600	0,346
156,700	0,346
156,800	0,346
156,900	0,346
157,000	0,346
157,100	0,340
157,200	0,346
157,300	0,340
157,400	0,340
157,500	0,340
157,600	0,335
157,700	0,340
157,800	0,335
157,900	0,335
158,000	0,335
158,100	0,335
158,200	0,335
158,300	0,335
158,400	0,335
158,500	0,335
158,600	0,330
158,700	0,330
158,800	0,330
158,900	0,330
159,000	0,335
159,100	0,330
159,200	0,325
159,300	0,325
159,400	0,330
159,500	0,325
159,600	0,325
159,700	0,325
159,800	0,325
159,900	0,325
160,000	0,325
160,100	0,325
160,200	0,320
160,300	0,320
160,400	0,320
160,500	0,320
160,600	0,320
160,700	0,320
160,800	0,320
160,900	0,315
161,000	0,320
161,100	0,315
161,200	0,320
161,300	0,320
161,400	0,315
161,500	0,315
161,600	0,315
161,700	0,315
161,800	0,309
161,900	0,309
162,000	0,309
162,100	0,315
162,200	0,309
162,300	0,315
162,400	0,304
162,500	0,309
162,600	0,304
162,700	0,304
162,800	0,304
162,900	0,304
163,000	0,304
163,100	0,304
163,200	0,304
163,300	0,304
163,400	0,304
163,500	0,304
163,600	0,299
163,700	0,299
163,800	0,299
163,900	0,299
164,000	0,299
164,100	0,299
164,200	0,299
164,300	0,294
164,400	0,299
164,500	0,299
164,600	0,294
164,700	0,299
164,800	0,294
164,900	0,294
165,000	0,294
165,100	0,289
165,200	0,294
165,300	0,294
165,400	0,289
165,500	0,289
165,600	0,284
165,700	0,289
165,800	0,284
165,900	0,289
166,000	0,284
166,100	0,284
166,200	0,289
166,300	0,284
166,400	0,284
166,500	0,284
166,600	0,284
166,700	0,284
166,800	0,284
166,900	0,278
167,000	0,284
167,100	0,278
167,200	0,278
167,300	0,284
167,400	0,278
167,500	0,278
167,600	0,278
167,700	0,278
167,800	0,278
167,900	0,278
168,000	0,278
168,100	0,273
168,200	0,273
168,300	0,278
168,400	0,273
168,500	0,273
168,600	0,273
168,700	0,273
168,800	0,268
168,900	0,273
169,000	0,273
169,100	0,273
169,200	0,273
169,300	0,268
169,400	0,268
169,500	0,273
169,600	0,268
169,700	0,268
169,800	0,268
169,900	0,268
170,000	0,268
170,100	0,268
170,200	0,263
170,300	0,263
170,400	0,263
170,500	0,263
170,600	0,263
170,700	0,263
170,800	0,263
170,900	0,263
171,000	0,258
171,100	0,263
171,200	0,263
171,300	0,258
171,400	0,258
171,500	0,258
171,600	0,258
171,700	0,258
171,800	0,258
171,900	0,258
172,000	0,258
172,100	0,258
172,200	0,253
172,300	0,253
172,400	0,253
172,500	0,253
172,600	0,253
172,700	0,253
172,800	0,253
172,900	0,253
173,000	0,253
173,100	0,248
173,200	0,248
173,300	0,248
173,400	0,248
173,500	0,248
173,600	0,248
173,700	0,248
173,800	0,248
173,900	0,248
174,000	0,248
174,100	0,248
174,200	0,242
174,300	0,242
174,400	0,242
174,500	0,242
174,600	0,242
174,700	0,242
174,800	0,242
174,900	0,242
175,000	0,242
175,100	0,242
175,200	0,242
175,300	0,242
175,400	0,242
175,500	0,242
175,600	0,237
175,700	0,237
175,800	0,237
175,900	0,237
176,000	0,237
176,100	0,237
176,200	0,237
176,300	0,232
176,400	0,232
176,500	0,237
176,600	0,232
176,700	0,232
176,800	0,232
176,900	0,237
177,000	0,232
177,100	0,232
177,200	0,232
177,300	0,232
177,400	0,232
177,500	0,227
177,600	0,232
177,700	0,227
177,800	0,232
177,900	0,232
178,000	0,232
178,100	0,227
178,200	0,227
178,300	0,227
178,400	0,227
178,500	0,227
178,600	0,222
178,700	0,227
178,800	0,222
178,900	0,222
179,000	0,222
179,100	0,222
179,200	0,222
179,300	0,222
179,400	0,222
179,500	0,217
179,600	0,222
179,700	0,222
179,800	0,222
179,900	0,222
180,000	0,222
180,100	0,217
180,200	0,217
180,300	0,217
180,400	0,217
180,500	0,217
180,600	0,217
180,700	0,217
180,800	0,217
180,900	0,217
181,000	0,211
181,100	0,217
181,200	0,211
181,300	0,217
181,400	0,211
181,500	0,211
181,600	0,211
181,700	0,211
181,800	0,206
181,900	0,211
182,000	0,211
182,100	0,206
182,200	0,211
182,300	0,206
182,400	0,211
182,500	0,211
182,600	0,211
182,700	0,206
182,800	0,206
182,900	0,206
183,000	0,206
183,100	0,206
183,200	0,206
183,300	0,206
183,400	0,206
183,500	0,206
183,600	0,206
183,700	0,201
183,800	0,206
183,900	0,206
184,000	0,201
184,100	0,206
184,200	0,201
184,300	0,201
184,400	0,201
184,500	0,201
184,600	0,201
184,700	0,201
184,800	0,201
184,900	0,201
185,000	0,196
185,100	0,201
185,200	0,201
185,300	0,201
185,400	0,201
185,500	0,201
185,600	0,196
185,700	0,196
185,800	0,196
185,900	0,196
186,000	0,196
186,100	0,196
186,200	0,196
186,300	0,196
186,400	0,196
186,500	0,191
186,600	0,191
186,700	0,196
186,800	0,196
186,900	0,191
187,000	0,191
187,100	0,191
187,200	0,191
187,300	0,191
187,400	0,191
187,500	0,191
187,600	0,191
187,700	0,191
187,800	0,191
187,900	0,191
188,000	0,186
188,100	0,191
188,200	0,186
188,300	0,186
188,400	0,186
188,500	0,186
188,600	0,186
188,700	0,186
188,800	0,186
188,900	0,186
189,000	0,186
189,100	0,186
189,200	0,186
189,300	0,181
189,400	0,186
189,500	0,181
189,600	0,186
189,700	0,181
189,800	0,181
189,900	0,181
190,000	0,181
190,100	0,181
190,200	0,181
190,300	0,181
190,400	0,181
190,500	0,181
190,600	0,181
190,700	0,181
190,800	0,181
190,900	0,175
191,000	0,181
191,100	0,181
191,200	0,175
191,300	0,175
191,400	0,175
191,500	0,181
191,600	0,175
191,700	0,175
191,800	0,181
191,900	0,175
192,000	0,175
192,100	0,175
192,200	0,175
192,300	0,170
192,400	0,170
192,500	0,175
192,600	0,170
192,700	0,170
192,800	0,170
192,900	0,170
193,000	0,170
193,100	0,170
193,200	0,170
193,300	0,170
193,400	0,170
193,500	0,170
193,600	0,165
193,700	0,170
193,800	0,170
193,900	0,165
194,000	0,170
194,100	0,165
194,200	0,170
194,300	0,165
194,400	0,170
194,500	0,165
194,600	0,165
194,700	0,165
194,800	0,165
194,900	0,165
195,000	0,165
195,100	0,165
195,200	0,165
195,300	0,160
195,400	0,165
195,500	0,160
195,600	0,165
195,700	0,165
195,800	0,160
195,900	0,165
196,000	0,160
196,100	0,160
196,200	0,160
196,300	0,160
196,400	0,165
196,500	0,160
196,600	0,160
196,700	0,160
196,800	0,160
196,900	0,160
197,000	0,160
197,100	0,160
197,200	0,160
197,300	0,160
197,400	0,160
197,500	0,160
197,600	0,155
197,700	0,160
197,800	0,160
197,900	0,155
198,000	0,160
198,100	0,155
198,200	0,160
198,300	0,160
198,400	0,155
198,500	0,155
198,600	0,155
198,700	0,155
198,800	0,155
198,900	0,150
199,000	0,155
199,100	0,155
199,200	0,155
199,300	0,155
199,400	0,155
199,500	0,155
199,600	0,150
199,700	0,150
199,800	0,150
199,900	0,150
200,000	0,150
200,100	0,150
200,200	0,155
200,300	0,150
200,400	0,150
200,500	0,150
200,600	0,150
200,700	0,150
200,800	0,150
200,900	0,144
201,000	0,144
201,100	0,150
201,200	0,150
201,300	0,150
201,400	0,144
201,500	0,144
201,600	0,144
201,700	0,144
201,800	0,150
201,900	0,150
202,000	0,144
202,100	0,144
202,200	0,144
202,300	0,144
202,400	0,144
202,500	0,144
202,600	0,144
202,700	0,144
202,800	0,144
202,900	0,144
203,000	0,144
203,100	0,144
203,200	0,144
203,300	0,144
203,400	0,144
203,500	0,139
203,600	0,139
203,700	0,144
203,800	0,139
203,900	0,139
204,000	0,144
204,100	0,139
204,200	0,139
204,300	0,139
204,400	0,139
204,500	0,139
204,600	0,139
204,700	0,139
204,800	0,139
204,900	0,139
205,000	0,134
205,100	0,139
205,200	0,139
205,300	0,134
205,400	0,139
205,500	0,139
205,600	0,134
205,700	0,134
205,800	0,134
205,900	0,134
206,000	0,134
206,100	0,134
206,200	0,134
206,300	0,134
206,400	0,134
206,500	0,139
206,600	0,134
206,700	0,134
206,800	0,134
206,900	0,134
207,000	0,134
207,100	0,134
207,200	0,134
207,300	0,134
207,400	0,134
207,500	0,134
207,600	0,134
207,700	0,134
207,800	0,129
207,900	0,134
208,000	0,129
208,100	0,129
208,200	0,134
208,300	0,134
208,400	0,129
208,500	0,134
208,600	0,129
208,700	0,129
208,800	0,129
208,900	0,129
209,000	0,129
209,100	0,129
209,200	0,129
209,300	0,129
209,400	0,129
209,500	0,129
209,600	0,129
209,700	0,129
209,800	0,129
209,900	0,129
210,000	0,129
210,100	0,129
210,200	0,124
210,300	0,124
210,400	0,124
210,500	0,124
210,600	0,124
210,700	0,124
210,800	0,124
210,900	0,124
211,000	0,124
211,100	0,124
211,200	0,124
211,300	0,124
211,400	0,124
211,500	0,124
211,600	0,124
211,700	0,124
211,800	0,124
211,900	0,124
212,000	0,119
212,100	0,119
212,200	0,119
212,300	0,124
212,400	0,124
212,500	0,119
212,600	0,119
212,700	0,119
212,800	0,119
212,900	0,119
213,000	0,119
213,100	0,119
213,200	0,124
213,300	0,119
213,400	0,119
213,500	0,119
213,600	0,119
213,700	0,119
213,800	0,119
213,900	0,119
214,000	0,119
214,100	0,119
214,200	0,119
214,300	0,119
214,400	0,119
214,500	0,119
214,600	0,119
214,700	0,119
214,800	0,119
214,900	0,119
215,000	0,113
215,100	0,119
215,200	0,119
215,300	0,119
215,400	0,113
215,500	0,113
215,600	0,113
215,700	0,113
215,800	0,119
215,900	0,113
216,000	0,119
216,100	0,113
216,200	0,113
216,300	0,113
216,400	0,113
216,500	0,113
216,600	0,113
216,700	0,113
216,800	0,113
216,900	0,113
217,000	0,113
217,100	0,108
217,200	0,113
217,300	0,113
217,400	0,113
217,500	0,113
217,600	0,113
217,700	0,113
217,800	0,108
217,900	0,113
218,000	0,108
218,100	0,113
218,200	0,108
218,300	0,113
218,400	0,113
218,500	0,113
218,600	0,113
218,700	0,113
218,800	0,108
218,900	0,108
219,000	0,108
219,100	0,108
219,200	0,108
219,300	0,113
219,400	0,108
219,500	0,108
219,600	0,108
219,700	0,108
219,800	0,108
219,900	0,108
220,000	0,108
220,100	0,103
220,200	0,108
220,300	0,103
220,400	0,108
220,500	0,108
220,600	0,108
220,700	0,103
220,800	0,103
220,900	0,103
221,000	0,108
221,100	0,103
221,200	0,103
221,300	0,108
221,400	0,103
221,500	0,103
221,600	0,103
221,700	0,103
221,800	0,103
221,900	0,103
222,000	0,103
222,100	0,103
222,200	0,103
222,300	0,103
222,400	0,103
222,500	0,103
222,600	0,103
222,700	0,098
222,800	0,103
222,900	0,103
223,000	0,103
223,100	0,103
223,200	0,098
223,300	0,103
223,400	0,103
223,500	0,103
223,600	0,103
223,700	0,098
223,800	0,103
223,900	0,103
224,000	0,103
224,100	0,098
224,200	0,103
224,300	0,098
224,400	0,098
224,500	0,098
224,600	0,098
224,700	0,098
224,800	0,098
224,900	0,098
225,000	0,098
225,100	0,098
225,200	0,098
225,300	0,098
225,400	0,098
225,500	0,098
225,600	0,098
225,700	0,098
225,800	0,098
225,900	0,098
226,000	0,098
226,100	0,098
226,200	0,098
226,300	0,098
226,400	0,098
226,500	0,098
226,600	0,098
226,700	0,098
226,800	0,098
226,900	0,093
227,000	0,098
227,100	0,098
227,200	0,098
227,300	0,098
227,400	0,098
227,500	0,098
227,600	0,093
227,700	0,093
227,800	0,098
227,900	0,093
228,000	0,093
228,100	0,093
228,200	0,093
228,300	0,093
228,400	0,093
228,500	0,093
228,600	0,093
228,700	0,093
228,800	0,093
228,900	0,093
229,000	0,093
229,100	0,093
229,200	0,093
229,300	0,093
229,400	0,093
229,500	0,098
229,600	0,093
229,700	0,093
229,800	0,093
229,900	0,088
230,000	0,093
230,100	0,093
230,200	0,093
230,300	0,093
230,400	0,093
230,500	0,093
230,600	0,088
230,700	0,093
230,800	0,088
230,900	0,093
231,000	0,088
231,100	0,088
231,200	0,088
231,300	0,088
231,400	0,093
231,500	0,093
231,600	0,093
231,700	0,093
231,800	0,088
231,900	0,088
232,000	0,088
232,100	0,088
232,200	0,088
232,300	0,093
232,400	0,088
232,500	0,088
232,600	0,088
232,700	0,088
232,800	0,088
232,900	0,088
233,000	0,088
233,100	0,088
233,200	0,088
233,300	0,088
233,400	0,088
233,500	0,088
233,600	0,088
233,700	0,088
233,800	0,088
233,900	0,088
234,000	0,088
234,100	0,088
234,200	0,083
234,300	0,088
234,400	0,088
234,500	0,088
234,600	0,083
234,700	0,088
234,800	0,083
234,900	0,083
235,000	0,083
235,100	0,083
235,200	0,083
235,300	0,083
235,400	0,088
235,500	0,083
235,600	0,083
235,700	0,083
235,800	0,083
235,900	0,083
236,000	0,088
236,100	0,083
236,200	0,083
236,300	0,083
236,400	0,083
236,500	0,083
236,600	0,083
236,700	0,083
236,800	0,083
236,900	0,083
237,000	0,083
237,100	0,083
237,200	0,083
237,300	0,083
237,400	0,083
237,500	0,083
237,600	0,083
237,700	0,077
237,800	0,083
237,900	0,083
238,000	0,083
238,100	0,083
238,200	0,083
238,300	0,077
238,400	0,083
238,500	0,083
238,600	0,083
238,700	0,077
238,800	0,077
238,900	0,077
239,000	0,083
239,100	0,077
239,200	0,077
239,300	0,083
239,400	0,077
239,500	0,077
239,600	0,077
239,700	0,077
239,800	0,077
239,900	0,077
240,000	0,083
240,100	0,077
240,200	0,077
240,300	0,077
240,400	0,077
240,500	0,077
240,600	0,077
240,700	0,077
240,800	0,077
240,900	0,077
241,000	0,077
241,100	0,077
241,200	0,077
241,300	0,077
241,400	0,077
241,500	0,077
241,600	0,077
241,700	0,077
241,800	0,077
241,900	0,077
242,000	0,077
242,100	0,077
242,200	0,077
242,300	0,072
242,400	0,077
242,500	0,077
242,600	0,077
242,700	0,077
242,800	0,077
242,900	0,077
243,000	0,077
243,100	0,077
243,200	0,077
243,300	0,077
243,400	0,077
243,500	0,072
243,600	0,072
243,700	0,077
243,800	0,077
243,900	0,072
244,000	0,072
244,100	0,072
244,200	0,072
244,300	0,072
244,400	0,072
244,500	0,077
244,600	0,072
244,700	0,072
244,800	0,077
244,900	0,072
245,000	0,072
245,100	0,072
245,200	0,072
245,300	0,072
245,400	0,072
245,500	0,072
245,600	0,072
245,700	0,072
245,800	0,072
245,900	0,072
246,000	0,072
246,100	0,072
246,200	0,072
246,300	0,072
246,400	0,072
246,500	0,072
246,600	0,072
246,700	0,072
246,800	0,072
246,900	0,072
247,000	0,072
247,100	0,072
247,200	0,072
247,300	0,072
247,400	0,072
247,500	0,072
247,600	0,072
247,700	0,067
247,800	0,072
247,900	0,072
248,000	0,072
248,100	0,072
248,200	0,067
248,300	0,072
248,400	0,067
248,500	0,072
248,600	0,072
248,700	0,072
248,800	0,072
248,900	0,072
249,000	0,067
249,100	0,072
249,200	0,072
249,300	0,072
249,400	0,067
249,500	0,072
249,600	0,072
249,700	0,072
249,800	0,067
249,900	0,072
250,000	0,072
250,100	0,067
250,200	0,067
250,300	0,067
250,400	0,072
250,500	0,067
250,600	0,067
250,700	0,067
250,800	0,062
250,900	0,067
251,000	0,067
251,100	0,067
251,200	0,067
251,300	0,067
251,400	0,067
251,500	0,067
251,600	0,067
251,700	0,067
251,800	0,067
251,900	0,067
252,000	0,067
252,100	0,067
252,200	0,067
252,300	0,062
252,400	0,067
252,500	0,067
252,600	0,062
252,700	0,067
252,800	0,067
252,900	0,067
253,000	0,067
253,100	0,062
253,200	0,067
253,300	0,067
253,400	0,067
253,500	0,067
253,600	0,067
253,700	0,067
253,800	0,067
253,900	0,062
254,000	0,062
254,100	0,062
254,200	0,067
254,300	0,062
254,400	0,062
254,500	0,062
254,600	0,062
254,700	0,062
254,800	0,067
254,900	0,067
255,000	0,067
255,100	0,067
255,200	0,067
255,300	0,067
255,400	0,062
255,500	0,062
255,600	0,062
255,700	0,062
255,800	0,067
255,900	0,062
256,000	0,062
256,100	0,062
256,200	0,067
256,300	0,062
256,400	0,062
256,500	0,067
256,600	0,062
256,700	0,062
256,800	0,062
256,900	0,067
257,000	0,062
257,100	0,062
257,200	0,062
257,300	0,062
257,400	0,062
257,500	0,062
257,600	0,062
257,700	0,062
257,800	0,062
257,900	0,062
258,000	0,062
258,100	0,062
258,200	0,062
258,300	0,062
258,400	0,062
258,500	0,062
258,600	0,062
258,700	0,062
258,800	0,062
258,900	0,062
259,000	0,062
259,100	0,062
259,200	0,062
259,300	0,062
259,400	0,062
259,500	0,062
259,600	0,057
259,700	0,057
259,800	0,062
259,900	0,062
260,000	0,062
260,100	0,062
260,200	0,062
260,300	0,062
260,400	0,062
260,500	0,062
260,600	0,062
260,700	0,057
260,800	0,062
260,900	0,062
261,000	0,057
261,100	0,057
261,200	0,057
261,300	0,057
261,400	0,057
261,500	0,062
261,600	0,057
261,700	0,062
261,800	0,062
261,900	0,062
262,000	0,057
262,100	0,062
262,200	0,057
262,300	0,062
262,400	0,062
262,500	0,057
262,600	0,057
262,700	0,057
262,800	0,057
262,900	0,057
263,000	0,057
263,100	0,062
263,200	0,057
263,300	0,057
263,400	0,057
263,500	0,057
263,600	0,057
263,700	0,057
263,800	0,057
263,900	0,057
264,000	0,057
264,100	0,057
264,200	0,057
264,300	0,062
264,400	0,057
264,500	0,062
264,600	0,057
264,700	0,057
264,800	0,052
264,900	0,057
265,000	0,057
265,100	0,057
265,200	0,057
265,300	0,057
265,400	0,052
265,500	0,057
265,600	0,057
265,700	0,057
265,800	0,057
265,900	0,057
266,000	0,057
266,100	0,057
266,200	0,057
266,300	0,057
266,400	0,057
266,500	0,057
266,600	0,057
266,700	0,057
266,800	0,062
266,900	0,057
267,000	0,057
267,100	0,057
267,200	0,057
267,300	0,057
267,400	0,057
267,500	0,057
267,600	0,057
267,700	0,057
267,800	0,057
267,900	0,057
268,000	0,057
268,100	0,057
268,200	0,052
268,300	0,057
268,400	0,057
268,500	0,052
268,600	0,057
268,700	0,052
268,800	0,052
268,900	0,057
269,000	0,052
269,100	0,052
269,200	0,052
269,300	0,052
269,400	0,057
269,500	0,052
269,600	0,052
269,700	0,052
269,800	0,052
269,900	0,052
270,000	0,057
270,100	0,052
270,200	0,057
270,300	0,052
270,400	0,052
270,500	0,057
270,600	0,052
270,700	0,052
270,800	0,052
270,900	0,052
271,000	0,052
271,100	0,057
271,200	0,052
271,300	0,052
271,400	0,052
271,500	0,052
271,600	0,052
271,700	0,052
271,800	0,057
271,900	0,052
272,000	0,052
272,100	0,052
272,200	0,057
272,300	0,052
272,400	0,052
272,500	0,057
272,600	0,052
272,700	0,052
272,800	0,052
272,900	0,052
273,000	0,052
273,100	0,052
273,200	0,052
273,300	0,052
273,400	0,052
273,500	0,052
273,600	0,052
273,700	0,052
273,800	0,052
273,900	0,052
274,000	0,052
274,100	0,052
274,200	0,052
274,300	0,052
274,400	0,052
274,500	0,052
274,600	0,052
274,700	0,052
274,800	0,052
274,900	0,052
275,000	0,052
275,100	0,052
275,200	0,052
275,300	0,052
275,400	0,052
275,500	0,052
275,600	0,052
275,700	0,052
275,800	0,052
275,900	0,052
276,000	0,052
276,100	0,052
276,200	0,052
276,300	0,046
276,400	0,046
276,500	0,052
276,600	0,052
276,700	0,046
276,800	0,046
276,900	0,046
277,000	0,046
277,100	0,052
277,200	0,046
277,300	0,046
277,400	0,046
277,500	0,046
277,600	0,046
277,700	0,052
277,800	0,052
277,900	0,046
278,000	0,052
278,100	0,052
278,200	0,046
278,300	0,046
278,400	0,052
278,500	0,052
278,600	0,052
278,700	0,052
278,800	0,046
278,900	0,052
279,000	0,046
279,100	0,046
279,200	0,052
279,300	0,046
279,400	0,046
279,500	0,046
279,600	0,046
279,700	0,046
279,800	0,046
279,900	0,046
280,000	0,046
280,100	0,046
280,200	0,046
280,300	0,046
280,400	0,046
280,500	0,046
280,600	0,052
280,700	0,046
280,800	0,046
280,900	0,046
281,000	0,046
281,100	0,046
281,200	0,046
281,300	0,046
281,400	0,046
281,500	0,046
281,600	0,046
281,700	0,046
281,800	0,046
281,900	0,052
282,000	0,046
282,100	0,046
282,200	0,046
282,300	0,046
282,400	0,046
282,500	0,046
282,600	0,046
282,700	0,046
282,800	0,046
282,900	0,046
283,000	0,046
283,100	0,046
283,200	0,046
283,300	0,046
283,400	0,041
283,500	0,046
283,600	0,046
283,700	0,046
283,800	0,046
283,900	0,046
284,000	0,046
284,100	0,046
284,200	0,046
284,300	0,046
284,400	0,046
284,500	0,046
284,600	0,046
284,700	0,046
284,800	0,046
284,900	0,046
285,000	0,046
285,100	0,046
285,200	0,041
285,300	0,046
285,400	0,046
285,500	0,046
285,600	0,041
285,700	0,046
285,800	0,046
285,900	0,046
286,000	0,046
286,100	0,046
286,200	0,046
286,300	0,041
286,400	0,041
286,500	0,041
286,600	0,041
286,700	0,046
286,800	0,046
286,900	0,041
287,000	0,046
287,100	0,046
287,200	0,046
287,300	0,046
287,400	0,046
287,500	0,046
287,600	0,046
287,700	0,046
287,800	0,046
287,900	0,046
288,000	0,041
288,100	0,041
288,200	0,041
288,300	0,046
288,400	0,041
288,500	0,046
288,600	0,041
288,700	0,041
288,800	0,046
288,900	0,046
289,000	0,041
289,100	0,046
289,200	0,041
289,300	0,041
289,400	0,041
289,500	0,041
289,600	0,046
289,700	0,041
289,800	0,046
289,900	0,041
290,000	0,041
290,100	0,041
290,200	0,041
290,300	0,041
290,400	0,046
290,500	0,041
290,600	0,041
290,700	0,041
290,800	0,041
290,900	0,041
291,000	0,041
291,100	0,046
291,200	0,041
291,300	0,041
291,400	0,046
291,500	0,046
291,600	0,046
291,700	0,041
291,800	0,041
291,900	0,041
292,000	0,041
292,100	0,041
292,200	0,041
292,300	0,041
292,400	0,041
292,500	0,046
292,600	0,041
292,700	0,041
292,800	0,041
292,900	0,041
293,000	0,041
293,100	0,041
293,200	0,041
293,300	0,046
293,400	0,041
293,500	0,041
293,600	0,041
293,700	0,041
293,800	0,041
293,900	0,041
294,000	0,041
294,100	0,041
294,200	0,041
294,300	0,041
294,400	0,041
294,500	0,041
294,600	0,041
294,700	0,041
294,800	0,041
294,900	0,041
295,000	0,041
295,100	0,041
295,200	0,041
295,300	0,041
295,400	0,041
295,500	0,041
295,600	0,036
295,700	0,041
295,800	0,041
295,900	0,041
296,000	0,041
296,100	0,041
296,200	0,041
296,300	0,041
296,400	0,041
296,500	0,041
296,600	0,041
296,700	0,041
296,800	0,041
296,900	0,036
297,000	0,041
297,100	0,041
297,200	0,041
297,300	0,041
297,400	0,041
297,500	0,041
297,600	0,041
297,700	0,041
297,800	0,041
297,900	0,041
298,000	0,036
298,100	0,041
298,200	0,041
298,300	0,041
298,400	0,041
298,500	0,041
298,600	0,041
298,700	0,036
298,800	0,041
298,900	0,041
299,000	0,041
299,100	0,041
299,200	0,041
299,300	0,041
299,400	0,041
299,500	0,036
299,600	0,041
299,700	0,041
299,800	0,036
299,900	0,041
300,000	0,041
300,100	0,041
300,200	0,041
300,300	0,041
300,400	0,036
300,500	0,041
300,600	0,041
300,700	0,041
300,800	0,041
300,900	0,041
301,000	0,036
301,100	0,041
301,200	0,041
301,300	0,036
301,400	0,036
301,500	0,036
301,600	0,036
301,700	0,036
301,800	0,041
301,900	0,041
302,000	0,041
302,100	0,036
302,200	0,036
302,300	0,036
302,400	0,036
302,500	0,041
302,600	0,041
302,700	0,041
302,800	0,036
302,900	0,036
303,000	0,041
303,100	0,041
303,200	0,036
303,300	0,041
303,400	0,041
303,500	0,041
303,600	0,041
303,700	0,041
303,800	0,036
303,900	0,041
304,000	0,041
304,100	0,036
304,200	0,041
304,300	0,036
304,400	0,036
304,500	0,041
304,600	0,041
304,700	0,041
304,800	0,041
304,900	0,036
305,000	0,036
305,100	0,036
305,200	0,041
305,300	0,036
305,400	0,036
305,500	0,041
305,600	0,041
305,700	0,041
305,800	0,041
305,900	0,041
306,000	0,041
306,100	0,041
306,200	0,041
306,300	0,041
306,400	0,036
306,500	0,041
306,600	0,036
306,700	0,036
306,800	0,036
306,900	0,036
307,000	0,041
307,100	0,036
307,200	0,036
307,300	0,041
307,400	0,041
307,500	0,041
307,600	0,036
307,700	0,036
307,800	0,036
307,900	0,041
308,000	0,036
308,100	0,036
308,200	0,041
308,300	0,036
308,400	0,036
308,500	0,041
308,600	0,036
308,700	0,036
308,800	0,036
308,900	0,036
309,000	0,041
309,100	0,036
309,200	0,041
309,300	0,036
309,400	0,036
309,500	0,036
309,600	0,036
309,700	0,036
309,800	0,036
309,900	0,036
310,000	0,036
310,100	0,036
310,200	0,041
310,300	0,036
310,400	0,041
310,500	0,036
310,600	0,036
310,700	0,036
310,800	0,041
310,900	0,036
311,000	0,041
311,100	0,036
311,200	0,036
311,300	0,041
311,400	0,036
311,500	0,036
311,600	0,036
311,700	0,036
311,800	0,036
311,900	0,036
312,000	0,036
312,100	0,036
312,200	0,036
312,300	0,036
312,400	0,036
312,500	0,036
312,600	0,036
312,700	0,036
312,800	0,036
312,900	0,036
313,000	0,036
313,100	0,036
313,200	0,036
313,300	0,036
313,400	0,041
313,500	0,036
313,600	0,036
313,700	0,036
313,800	0,036
313,900	0,036
314,000	0,036
314,100	0,036
314,200	0,036
314,300	0,031
314,400	0,031
314,500	0,036
314,600	0,036
314,700	0,036
314,800	0,036
314,900	0,036
315,000	0,036
315,100	0,036
315,200	0,036
315,300	0,036
315,400	0,036
315,500	0,036
315,600	0,036
315,700	0,036
315,800	0,036
315,900	0,036
316,000	0,036
316,100	0,036
316,200	0,036
316,300	0,036
316,400	0,036
316,500	0,036
316,600	0,036
316,700	0,036
316,800	0,041
316,900	0,036
317,000	0,036
317,100	0,036
317,200	0,036
317,300	0,036
317,400	0,036
317,500	0,036
317,600	0,036
317,700	0,036
317,800	0,036
317,900	0,036
318,000	0,031
318,100	0,031
318,200	0,036
318,300	0,036
318,400	0,031
318,500	0,036
318,600	0,036
318,700	0,031
318,800	0,036
318,900	0,036
319,000	0,036
319,100	0,036
319,200	0,036
319,300	0,036
319,400	0,036
319,500	0,036
319,600	0,036
319,700	0,036
319,800	0,031
319,900	0,036
320,000	0,036
320,100	0,036
320,200	0,031
320,300	0,036
320,400	0,036
320,500	0,036
320,600	0,036
320,700	0,036
320,800	0,036
320,900	0,036
321,000	0,036
321,100	0,036
321,200	0,036
321,300	0,036
321,400	0,036
321,500	0,031
321,600	0,036
321,700	0,036
321,800	0,036
321,900	0,036
322,000	0,036
322,100	0,036
322,200	0,036
322,300	0,036
322,400	0,036
322,500	0,036
322,600	0,036
322,700	0,036
322,800	0,036
322,900	0,036
323,000	0,036
323,100	0,036
323,200	0,036
323,300	0,036
323,400	0,036
323,500	0,036
323,600	0,036
323,700	0,036
323,800	0,031
323,900	0,036
324,000	0,036
324,100	0,036
324,200	0,036
324,300	0,036
324,400	0,036
324,500	0,036
324,600	0,031
324,700	0,036
324,800	0,036
324,900	0,036
325,000	0,036
325,100	0,036
325,200	0,031
325,300	0,036
325,400	0,036
325,500	0,031
325,600	0,036
325,700	0,036
325,800	0,036
325,900	0,036
326,000	0,036
326,100	0,036
326,200	0,036
326,300	0,031
326,400	0,036
326,500	0,036
326,600	0,036
326,700	0,036
326,800	0,036
326,900	0,031
327,000	0,031
327,100	0,036
327,200	0,031
327,300	0,036
327,400	0,036
327,500	0,036
327,600	0,036
327,700	0,036
327,800	0,031
327,900	0,036
328,000	0,031
328,100	0,036
328,200	0,031
328,300	0,036
328,400	0,031
328,500	0,031
328,600	0,031
328,700	0,031
328,800	0,036
328,900	0,036
329,000	0,036
329,100	0,031
329,200	0,031
329,300	0,031
329,400	0,031
329,500	0,036
329,600	0,031
329,700	0,031
329,800	0,031
329,900	0,036
330,000	0,031
330,100	0,031
330,200	0,036
330,300	0,036
330,400	0,031
330,500	0,031
330,600	0,031
330,700	0,031
330,800	0,036
330,900	0,036
331,000	0,036
331,100	0,036
331,200	0,031
331,300	0,031
331,400	0,036
331,500	0,031
331,600	0,031
331,700	0,031
331,800	0,031
331,900	0,031
332,000	0,031
332,100	0,036
332,200	0,031
332,300	0,036
332,400	0,036
332,500	0,036
332,600	0,031
332,700	0,036
332,800	0,031
332,900	0,031
333,000	0,031
333,100	0,031
333,200	0,036
333,300	0,036
333,400	0,031
333,500	0,036
333,600	0,031
333,700	0,031
333,800	0,036
333,900	0,031
334,000	0,031
334,100	0,036
334,200	0,036
334,300	0,036
334,400	0,031
334,500	0,031
334,600	0,031
334,700	0,031
334,800	0,036
334,900	0,036
335,000	0,036
335,100	0,031
335,200	0,031
335,300	0,031
335,400	0,031
335,500	0,031
335,600	0,031
335,700	0,031
335,800	0,031
335,900	0,031
336,000	0,031
336,100	0,031
336,200	0,036
336,300	0,031
336,400	0,036
336,500	0,031
336,600	0,031
336,700	0,031
336,800	0,031
336,900	0,031
337,000	0,031
337,100	0,031
337,200	0,031
337,300	0,031
337,400	0,031
337,500	0,031
337,600	0,031
337,700	0,036
337,800	0,031
337,900	0,036
338,000	0,031
338,100	0,031
338,200	0,031
338,300	0,031
338,400	0,031
338,500	0,031
338,600	0,031
338,700	0,036
338,800	0,031
338,900	0,031
339,000	0,031
339,100	0,036
339,200	0,031
339,300	0,031
339,400	0,031
339,500	0,031
339,600	0,031
339,700	0,031
339,800	0,031
339,900	0,031
340,000	0,031
340,100	0,031
340,200	0,031
340,300	0,031
340,400	0,031
340,500	0,036
340,600	0,031
340,700	0,031
340,800	0,031
340,900	0,031
341,000	0,036
341,100	0,031
341,200	0,031
341,300	0,031
341,400	0,031
341,500	0,031
341,600	0,031
341,700	0,031
341,800	0,031
341,900	0,031
342,000	0,031
342,100	0,031
342,200	0,031
342,300	0,031
342,400	0,031
342,500	0,026
342,600	0,031
342,700	0,031
342,800	0,031
342,900	0,031
343,000	0,031
343,100	0,031
343,200	0,031
343,300	0,031
343,400	0,031
343,500	0,031
343,600	0,031
343,700	0,031
343,800	0,036
343,900	0,031
344,000	0,031
344,100	0,031
344,200	0,031
344,300	0,031
344,400	0,031
344,500	0,031
344,600	0,031
344,700	0,031
344,800	0,031
344,900	0,031
345,000	0,031
345,100	0,031
345,200	0,031
345,300	0,031
345,400	0,031
345,500	0,031
345,600	0,031
345,700	0,031
345,800	0,031
345,900	0,031
346,000	0,031
346,100	0,031
346,200	0,031
346,300	0,031
346,400	0,031
346,500	0,031
346,600	0,031
346,700	0,031
346,800	0,031
346,900	0,031
347,000	0,031
347,100	0,031
347,200	0,031
347,300	0,031
347,400	0,031
347,500	0,031
347,600	0,031
347,700	0,031
347,800	0,031
347,900	0,031
348,000	0,031
348,100	0,031
348,200	0,026
348,300	0,031
348,400	0,031
348,500	0,031
348,600	0,031
348,700	0,031
348,800	0,031
348,900	0,031
349,000	0,026
349,100	0,031
349,200	0,031
349,300	0,026
349,400	0,031
349,500	0,031
349,600	0,031
349,700	0,031
349,800	0,031
349,900	0,031
350,000	0,031
350,100	0,036
350,200	0,031
350,300	0,031
350,400	0,031
350,500	0,031
350,600	0,031
350,700	0,031
350,800	0,031
350,900	0,031
351,000	0,031
351,100	0,031
351,200	0,031
351,300	0,031
351,400	0,031
351,500	0,026
351,600	0,026
351,700	0,031
351,800	0,031
351,900	0,026
352,000	0,031
352,100	0,031
352,200	0,031
352,300	0,031
352,400	0,031
352,500	0,031
352,600	0,031
352,700	0,031
352,800	0,031
352,900	0,031
353,000	0,031
353,100	0,031
353,200	0,031
353,300	0,031
353,400	0,031
353,500	0,031
353,600	0,031
353,700	0,031
353,800	0,031
353,900	0,031
354,000	0,036
354,100	0,031
354,200	0,031
354,300	0,031
354,400	0,031
354,500	0,031
354,600	0,031
354,700	0,031
354,800	0,026
354,900	0,031
355,000	0,031
355,100	0,026
355,200	0,031
355,300	0,026
355,400	0,031
355,500	0,031
355,600	0,031
355,700	0,031
355,800	0,026
355,900	0,031
356,000	0,026
356,100	0,031
356,200	0,031
356,300	0,031
356,400	0,031
356,500	0,031
356,600	0,031
356,700	0,031
356,800	0,031
356,900	0,031
357,000	0,031
357,100	0,031
357,200	0,031
357,300	0,026
357,400	0,031
357,500	0,031
357,600	0,031
357,700	0,031
357,800	0,031
357,900	0,031
358,000	0,031
358,100	0,031
358,200	0,031
358,300	0,031
358,400	0,031
358,500	0,031
358,600	0,026
358,700	0,031
358,800	0,026
358,900	0,031
359,000	0,031
359,100	0,031
359,200	0,031
359,300	0,031
359,400	0,026
359,500	0,031
359,600	0,031
359,700	0,031
359,800	0,026
359,900	0,031
360,000	0,031
360,100	0,031
360,200	0,031
360,300	0,026
360,400	0,031
360,500	0,026
360,600	0,026
360,700	0,026
360,800	0,026
360,900	0,031
361,000	0,026
361,100	0,031
361,200	0,031
361,300	0,031
361,400	0,031
361,500	0,031
361,600	0,031
361,700	0,031
361,800	0,031
361,900	0,031
362,000	0,031
362,100	0,026
362,200	0,026
362,300	0,031
362,400	0,026
362,500	0,031
362,600	0,031
362,700	0,031
362,800	0,031
362,900	0,031
363,000	0,031
363,100	0,031
363,200	0,031
363,300	0,031
363,400	0,026
363,500	0,031
363,600	0,031
363,700	0,031
363,800	0,026
363,900	0,026
364,000	0,031
364,100	0,031
364,200	0,031
364,300	0,031
364,400	0,031
364,500	0,031
364,600	0,031
364,700	0,026
364,800	0,031
364,900	0,031
365,000	0,026
365,100	0,026
365,200	0,031
365,300	0,026
365,400	0,031
365,500	0,031
365,600	0,031
365,700	0,031
365,800	0,026
365,900	0,026
366,000	0,031
366,100	0,031
366,200	0,026
366,300	0,026
366,400	0,031
366,500	0,031
366,600	0,031
366,700	0,031
366,800	0,031
366,900	0,031
367,000	0,031
367,100	0,031
367,200	0,031
367,300	0,031
367,400	0,031
367,500	0,031
367,600	0,026
367,700	0,026
367,800	0,026
367,900	0,031
368,000	0,026
368,100	0,031
368,200	0,026
368,300	0,031
368,400	0,026
368,500	0,026
368,600	0,026
368,700	0,031
368,800	0,031
368,900	0,031
369,000	0,031
369,100	0,031
369,200	0,031
369,300	0,031
369,400	0,026
369,500	0,031
369,600	0,026
369,700	0,031
369,800	0,031
369,900	0,026
370,000	0,026
370,100	0,026
370,200	0,031
370,300	0,031
370,400	0,026
370,500	0,031
370,600	0,026
370,700	0,031
370,800	0,031
370,900	0,031
371,000	0,031
371,100	0,031
371,200	0,031
371,300	0,031
371,400	0,031
371,500	0,031
371,600	0,031
371,700	0,031
371,800	0,031
371,900	0,026
372,000	0,026
372,100	0,031
372,200	0,031
372,300	0,031
372,400	0,026
372,500	0,031
372,600	0,031
372,700	0,026
372,800	0,026
372,900	0,031
373,000	0,031
373,100	0,031
373,200	0,031
373,300	0,031
373,400	0,026
373,500	0,031
373,600	0,031
373,700	0,031
373,800	0,026
373,900	0,026
374,000	0,026
374,100	0,031
374,200	0,026
374,300	0,026
374,400	0,031
374,500	0,026
374,600	0,031
374,700	0,031
374,800	0,026
374,900	0,031
375,000	0,031
375,100	0,031
375,200	0,031
375,300	0,031
375,400	0,031
375,500	0,026
375,600	0,031
375,700	0,031
375,800	0,026
375,900	0,031
376,000	0,026
376,100	0,031
376,200	0,026
376,300	0,031
376,400	0,026
376,500	0,026
376,600	0,031
376,700	0,031
376,800	0,026
376,900	0,031
377,000	0,026
377,100	0,026
377,200	0,031
377,300	0,031
377,400	0,031
377,500	0,026
377,600	0,031
377,700	0,031
377,800	0,031
377,900	0,031
378,000	0,031
378,100	0,031
378,200	0,026
378,300	0,031
378,400	0,031
378,500	0,031
378,600	0,026
378,700	0,026
378,800	0,031
378,900	0,031
379,000	0,031
379,100	0,031
379,200	0,031
379,300	0,026
379,400	0,031
379,500	0,026
379,600	0,031
379,700	0,031
379,800	0,031
379,900	0,026
380,000	0,031
380,100	0,031
380,200	0,031
380,300	0,026
380,400	0,026
380,500	0,026
380,600	0,026
380,700	0,026
380,800	0,026
380,900	0,026
381,000	0,031
381,100	0,026
381,200	0,026
381,300	0,031
381,400	0,026
381,500	0,026
381,600	0,026
381,700	0,031
381,800	0,026
381,900	0,026
382,000	0,031
382,100	0,026
382,200	0,031
382,300	0,031
382,400	0,026
382,500	0,026
382,600	0,031
382,700	0,026
382,800	0,031
382,900	0,026
383,000	0,026
383,100	0,026
383,200	0,026
383,300	0,026
383,400	0,031
383,500	0,031
383,600	0,026
383,700	0,026
383,800	0,026
383,900	0,026
384,000	0,031
384,100	0,026
384,200	0,031
384,300	0,026
384,400	0,026
384,500	0,026
384,600	0,031
384,700	0,031
384,800	0,026
384,900	0,026
385,000	0,026
385,100	0,026
385,200	0,026
385,300	0,031
385,400	0,026
385,500	0,026
385,600	0,031
385,700	0,031
385,800	0,031
385,900	0,031
386,000	0,031
386,100	0,031
386,200	0,026
386,300	0,026
386,400	0,026
386,500	0,026
386,600	0,026
386,700	0,026
386,800	0,026
386,900	0,031
387,000	0,031
387,100	0,031
387,200	0,026
387,300	0,026
387,400	0,026
387,500	0,026
387,600	0,026
387,700	0,031
387,800	0,026
387,900	0,026
388,000	0,031
388,100	0,031
388,200	0,026
388,300	0,026
388,400	0,026
388,500	0,026
388,600	0,026
388,700	0,026
388,800	0,026
388,900	0,031
389,000	0,026
389,100	0,026
389,200	0,031
389,300	0,026
389,400	0,026
389,500	0,031
389,600	0,026
389,700	0,026
389,800	0,026
389,900	0,026
390,000	0,026
390,100	0,026
390,200	0,026
390,300	0,031
390,400	0,026
390,500	0,026
390,600	0,031
390,700	0,026
390,800	0,031
390,900	0,026
391,000	0,026
391,100	0,026
391,200	0,026
391,300	0,031
391,400	0,031
391,500	0,026
391,600	0,026
391,700	0,026
391,800	0,026
391,900	0,031
392,000	0,026
392,100	0,026
392,200	0,026
392,300	0,031
392,400	0,031
392,500	0,026
392,600	0,026
392,700	0,026
392,800	0,031
392,900	0,026
393,000	0,026
393,100	0,026
393,200	0,026
393,300	0,026
393,400	0,026
393,500	0,026
393,600	0,031
393,700	0,031
393,800	0,026
393,900	0,026
394,000	0,026
394,100	0,026
394,200	0,026
394,300	0,026
394,400	0,026
394,500	0,026
394,600	0,026
394,700	0,026
394,800	0,026
394,900	0,031
395,000	0,026
395,100	0,026
395,200	0,026
395,300	0,026
395,400	0,026
395,500	0,026
395,600	0,026
395,700	0,026
395,800	0,026
395,900	0,026
396,000	0,026
396,100	0,026
396,200	0,026
396,300	0,031
396,400	0,026
396,500	0,026
396,600	0,026
396,700	0,026
396,800	0,026
396,900	0,026
397,000	0,026
397,100	0,026
397,200	0,026
397,300	0,026
397,400	0,026
397,500	0,026
397,600	0,026
397,700	0,031
397,800	0,031
397,900	0,026
398,000	0,026
398,100	0,031
398,200	0,026
398,300	0,031
398,400	0,031
398,500	0,026
398,600	0,026
398,700	0,026
398,800	0,026
398,900	0,026
399,000	0,026
399,100	0,026
399,200	0,026
399,300	0,026
399,400	0,026
399,500	0,026
399,600	0,026
399,700	0,026
399,800	0,026
399,900	0,026
400,000	0,031
400,100	0,026
400,200	0,026
400,300	0,026
400,400	0,031
400,500	0,026
400,600	0,026
400,700	0,026
400,800	0,026
400,900	0,026
401,000	0,031
401,100	0,026
401,200	0,026
401,300	0,026
401,400	0,031
401,500	0,026
401,600	0,026
401,700	0,031
401,800	0,026
401,900	0,026
402,000	0,026
402,100	0,026
402,200	0,031
402,300	0,026
402,400	0,026
402,500	0,026
402,600	0,026
402,700	0,026
402,800	0,026
402,900	0,026
403,000	0,026
403,100	0,026
403,200	0,031
403,300	0,026
403,400	0,031
403,500	0,026
403,600	0,026
403,700	0,026
403,800	0,026
403,900	0,026
404,000	0,026
404,100	0,026
404,200	0,026
404,300	0,026
404,400	0,026
404,500	0,026
404,600	0,026
404,700	0,026
404,800	0,026
404,900	0,031
405,000	0,026
405,100	0,026
405,200	0,026
405,300	0,026
405,400	0,026
405,500	0,026
405,600	0,026
405,700	0,026
405,800	0,026
405,900	0,026
406,000	0,031
406,100	0,031
406,200	0,026
406,300	0,026
406,400	0,026
406,500	0,026
406,600	0,026
406,700	0,026
406,800	0,031
406,900	0,026
407,000	0,026
407,100	0,026
407,200	0,026
407,300	0,026
407,400	0,026
407,500	0,026
407,600	0,031
407,700	0,026
407,800	0,026
407,900	0,026
408,000	0,026
408,100	0,026
408,200	0,026
408,300	0,026
408,400	0,026
408,500	0,026
408,600	0,031
408,700	0,026
408,800	0,026
408,900	0,026
409,000	0,026
409,100	0,026
409,200	0,026
409,300	0,026
409,400	0,026
409,500	0,031
409,600	0,031
409,700	0,026
409,800	0,026
409,900	0,026
410,000	0,026
410,100	0,026
410,200	0,026
410,300	0,026
410,400	0,026
410,500	0,026
410,600	0,031
410,700	0,026
410,800	0,026
410,900	0,026
411,000	0,026
411,100	0,026
411,200	0,026
411,300	0,026
411,400	0,026
411,500	0,026
411,600	0,026
411,700	0,026
411,800	0,031
411,900	0,026
412,000	0,026
412,100	0,026
412,200	0,026
412,300	0,026
412,400	0,026
412,500	0,026
412,600	0,026
412,700	0,031
412,800	0,026
412,900	0,026
413,000	0,031
413,100	0,026
413,200	0,031
413,300	0,026
413,400	0,026
413,500	0,031
413,600	0,026
413,700	0,026
413,800	0,026
413,900	0,026
414,000	0,026
414,100	0,026
414,200	0,026
414,300	0,026
414,400	0,026
414,500	0,026
414,600	0,026
414,700	0,026
414,800	0,026
414,900	0,026
415,000	0,026
415,100	0,026
415,200	0,031
415,300	0,026
415,400	0,031
415,500	0,026
415,600	0,026
415,700	0,026
415,800	0,026
415,900	0,031
416,000	0,026
416,100	0,026
416,200	0,026
416,300	0,026
416,400	0,026
416,500	0,026
416,600	0,026
416,700	0,026
416,800	0,026
416,900	0,026
417,000	0,026
417,100	0,026
417,200	0,026
417,300	0,026
417,400	0,026
417,500	0,026
417,600	0,026
417,700	0,026
417,800	0,026
417,900	0,026
418,000	0,026
418,100	0,026
418,200	0,031
418,300	0,026
418,400	0,026
418,500	0,026
418,600	0,026
418,700	0,026
418,800	0,026
418,900	0,026
419,000	0,031
419,100	0,026
419,200	0,026
419,300	0,026
419,400	0,026
419,500	0,026
419,600	0,031
419,700	0,026
419,800	0,026
419,900	0,026
420,000	0,026
420,100	0,026
420,200	0,026
420,300	0,026
420,400	0,026
420,500	0,026
420,600	0,026
420,700	0,026
420,800	0,026
420,900	0,026
421,000	0,026
421,100	0,026
421,200	0,026
421,300	0,026
421,400	0,026
421,500	0,031
421,600	0,031
421,700	0,026
421,800	0,026
421,900	0,026
422,000	0,026
422,100	0,026
422,200	0,026
422,300	0,026
422,400	0,031
422,500	0,026
422,600	0,026
422,700	0,026
422,800	0,026
422,900	0,031
423,000	0,026
423,100	0,026
423,200	0,026
423,300	0,031
423,400	0,026
423,500	0,026
423,600	0,031
423,700	0,026
423,800	0,026
423,900	0,021
424,000	0,031
424,100	0,026
424,200	0,026
424,300	0,026
424,400	0,031
424,500	0,026
424,600	0,026
424,700	0,026
424,800	0,026
424,900	0,021
425,000	0,026
425,100	0,026
425,200	0,026
425,300	0,026
425,400	0,026
425,500	0,031
425,600	0,026
425,700	0,026
425,800	0,026
425,900	0,026
426,000	0,026
426,100	0,026
426,200	0,031
426,300	0,026
426,400	0,026
426,500	0,026
426,600	0,026
426,700	0,026
426,800	0,026
426,900	0,026
427,000	0,026
427,100	0,026
427,200	0,026
427,300	0,026
427,400	0,026
427,500	0,026
427,600	0,031
427,700	0,026
427,800	0,026
427,900	0,026
428,000	0,026
428,100	0,026
428,200	0,026
428,300	0,026
428,400	0,026
428,500	0,026
428,600	0,026
428,700	0,026
428,800	0,026
428,900	0,026
429,000	0,026
429,100	0,026
429,200	0,026
429,300	0,026
429,400	0,026
429,500	0,026
429,600	0,026
429,700	0,026
429,800	0,026
429,900	0,026
430,000	0,026
430,100	0,026
430,200	0,026
430,300	0,026
430,400	0,026
430,500	0,026
430,600	0,026
430,700	0,026
430,800	0,026
430,900	0,026
431,000	0,026
431,100	0,026
431,200	0,026
431,300	0,026
431,400	0,026
431,500	0,031
431,600	0,026
431,700	0,031
431,800	0,026
431,900	0,026
432,000	0,026
432,100	0,026
432,200	0,031
432,300	0,026
432,400	0,026
432,500	0,026
432,600	0,026
432,700	0,026
432,800	0,026
432,900	0,026
433,000	0,026
433,100	0,026
433,200	0,026
433,300	0,026
433,400	0,026
433,500	0,026
433,600	0,026
433,700	0,026
433,800	0,026
433,900	0,026
434,000	0,026
434,100	0,026
434,200	0,026
434,300	0,026
434,400	0,026
434,500	0,031
434,600	0,026
434,700	0,026
434,800	0,026
434,900	0,026
435,000	0,026
435,100	0,026
435,200	0,026
435,300	0,026
435,400	0,026
435,500	0,026
435,600	0,026
435,700	0,026
435,800	0,026
435,900	0,026
436,000	0,026
436,100	0,026
436,200	0,026
436,300	0,026
436,400	0,026
436,500	0,026
436,600	0,026
436,700	0,026
436,800	0,026
436,900	0,026
437,000	0,026
437,100	0,026
437,200	0,031
437,300	0,026
437,400	0,026
437,500	0,026
437,600	0,026
437,700	0,026
437,800	0,026
437,900	0,026
438,000	0,026
438,100	0,026
438,200	0,026
438,300	0,026
438,400	0,026
438,500	0,026
438,600	0,026
438,700	0,026
438,800	0,026
438,900	0,026
439,000	0,026
439,100	0,026
439,200	0,026
439,300	0,026
439,400	0,026
439,500	0,026
439,600	0,026
439,700	0,026
439,800	0,026
439,900	0,026
440,000	0,026
440,100	0,026
440,200	0,026
440,300	0,026
440,400	0,026
440,500	0,026
440,600	0,026
440,700	0,026
440,800	0,026
440,900	0,026
441,000	0,031
441,100	0,026
441,200	0,026
441,300	0,026
